F7,Fp1,Fp2,F8,F3,Fz,F4,C3,Cz,P8,P7,Pz,P4,T3,P3,O1,O2,C4,T4
2.529227988475591,3.1236884904951245,3.396332714908679,2.600458758693371,2.0951545798127755,2.865735605157482,3.26515795747803,2.3801404721216564,2.345527365303776,3.635190043072086,2.153079180070396,2.278426683508818,2.955698265525399,3.6968362829242576,3.0278186002724436,2.027146129592072,2.2129804484398496,2.4892677441773228,2.9304796223603646
1.8803057560951828,3.0999962353181316,2.1307120972929416,1.788167849099389,1.5682371385536653,1.1664223836760403,2.1614733310881715,2.9056350723961315,1.4980802068109347,3.627409353860516,1.3667523850547674,2.8938657750588117,2.7155308737375647,3.1865032837849485,2.771936304855864,1.1154494042910896,1.4300403615219879,2.463336913697294,3.2600164574371866
1.7632218097629258,2.628645134940332,2.8126677977082575,1.865066269703532,1.4983767786404463,2.3917277397404986,2.084253654490679,3.0067329565513794,1.3520935381931782,3.5916794575601116,1.356574010605969,2.321261681750499,2.2492250309253587,3.650493190958173,2.5424580073751235,1.261224060275677,1.5568612434655136,2.8000950685740764,2.211553770331315
1.7968793785783885,1.991812118444493,1.7254125469168873,1.413666315262671,1.4029883856542316,1.5303901291535509,1.7398425733394427,2.1730151742204398,1.4821437817605718,3.070201553170112,1.4816648769328475,1.5904134024973675,1.5915655714514751,1.914334294524591,1.5997925016681345,1.162679065188789,1.4555070025688694,1.6301969637191263,1.922090668533604
1.8130394022131089,1.868153073006793,1.7301505032870432,1.3369177211330334,1.4709093071546504,1.4462650550783653,1.6331635065044638,1.860943373416746,1.3779840529902658,3.441120430217985,1.3115448241768284,1.5511266994318627,1.6191908624310123,2.0062961703595077,1.7623981517741096,1.7843220696012347,1.3479459698014973,1.717222622074895,1.984447661552201
1.6422872979519785,1.996993946328777,1.7323983055663439,1.3685041625225498,1.3465934849072774,1.3164187320173586,1.6406554056713223,1.7090845745631995,1.2365586826126722,2.330971193277865,1.5059331114216887,1.381176888892008,1.539309154980501,1.9617721293530583,1.676114273557674,1.6353826796412976,1.3330024953880601,1.5925163879473496,1.9120933658152168
1.6665554801116147,1.814160139121584,1.7093448374801858,1.4507517789681756,1.4523867996189457,1.3904003469131552,1.6495351476803801,1.7360345987899628,1.3655107990125506,1.9064756317668337,1.2290464129880398,1.4939699855096356,1.7126583682081502,2.2009031942878785,1.6066943464716505,1.6609307304037422,1.4645226430375655,1.7290922026359072,1.8944797198303132
1.7558710187396227,2.489101215304168,3.1899629957416304,1.4029951059275239,1.5655482277691632,1.8480093835303109,1.9601092657468848,2.6562937143494434,2.1617158476666796,1.9295827092401898,1.533306847433783,1.5156288524065735,1.6216580992440945,2.1011911072555067,1.7465328959701767,1.2904036486777175,1.4072269946217557,2.9619824024278305,2.6384467431163725
1.2454422770162341,1.13312952741151,1.051592072340158,1.1859521187211726,1.1430582071225925,1.2072726101008981,1.1100064964675567,1.5259374949152325,1.176211676415194,1.5309460935765147,1.528737870343641,1.1959585237010504,1.2715969463600356,1.4004584235298054,1.27349516163272,1.220168011405448,1.2328096994117532,1.2798615306591414,1.443363681595869
1.6984474564727963,1.6311032312168499,1.6699448625376885,1.2754131338279953,1.4142541991155517,1.2656709549425278,1.6527117741769992,2.057857377066732,1.3289740118707634,2.1960964304608415,1.5440557552635266,1.4034544153115462,1.706112219592239,2.014980174923426,2.2499302764167743,1.3109776136558058,1.4964295713851865,1.9432200664938288,1.9074272849435907
2.149957721061529,2.54976343625242,2.594235107570878,1.403421957380044,1.4718548720456364,1.3166955825689324,1.7113421926779013,2.4675770859063535,1.3930932219998606,2.11588189552705,1.3354238901398263,1.4145320026043784,1.6378382786567471,2.047241158775563,1.7664746266952798,1.2559981267656188,1.4217419899562234,2.769969397458405,2.0706085287220115
1.9776317079157588,2.5248395382841093,2.689648916476955,1.644705682583856,1.8221225051207495,1.465148542721908,2.196856817438376,2.283217578799168,1.4449058975737121,2.5084346789623124,1.5351332755311713,1.27048944356269,1.7047072582204443,1.892237712462213,1.6212764129877562,1.1961325528043738,1.378712490683269,2.497916915172202,2.2341009324499
1.9172680517609535,2.6297016753659928,2.843366731917103,1.3767894490330035,1.8483986230076495,1.3706063774115584,2.2269536192216672,2.424864318861278,1.4586856309195195,2.0753695687924156,1.3690019503839204,1.3765155856864528,1.583897114688556,2.8348805800740835,1.650775840719982,1.2999479709223336,1.435535559749872,2.4046573078439013,2.0668227956317513
1.8930439418256295,2.024425249899906,2.1846919615611093,1.7320787124802297,1.7163461929698092,1.5747137339252197,1.9331030633113482,2.2936718596853103,1.5406074120783446,2.4152227001836915,1.8325132408944287,1.512548032795746,1.7793882640253647,2.373740758211009,1.9114375875337013,1.3925052848679098,1.5351623806038017,2.634199261425843,2.2981955918242436
1.6897140223620393,2.4225532211615004,2.4643355775142615,2.2077530097791347,1.858095422335564,1.4283407908421335,1.9753923753069758,2.1680080527759373,1.4285614190277558,2.2302866515911677,1.4543263900947634,1.400694826042589,1.7400433322308233,2.6980603014906026,1.8698630993313423,1.2791841787426985,1.3747011570146517,2.851676243329339,2.1528319771283093
1.9767270663819299,2.19209971244256,2.781628895406653,1.3878367428323455,1.8037813238739533,1.4864921312822348,2.166752590400319,2.2633355748786927,1.4921397907834704,2.580186050995285,1.4561730816104301,1.4401696059734856,1.9221407031781943,2.4467782908125137,2.0209319268217483,1.1799864727784812,1.6837946023892618,3.007910470583928,2.213325102439955
1.5845961186856357,1.9160054740015873,2.5147245867251997,1.4876734505419607,1.4223214240740176,1.3353823690443538,1.9182226224013432,1.8787915107365964,1.2944416063352542,2.1787191089780706,1.3173933473110406,1.3075599950946355,1.685876252771157,1.905869367484535,1.6629923553452757,1.1543648376804876,1.3196716790593905,2.4830761716272867,2.173309180408964
1.8636101949572499,2.2700736246788447,3.32505251223667,1.5835263872137615,2.0203031231217685,1.6349316253274524,2.5103765646707736,2.3516877475059164,1.6098039541576024,2.47098499916622,1.4653086142073808,1.574249430577927,1.8970971532757628,3.0166036221493853,2.023766503936727,1.3360163202408857,1.5518445041992484,3.0511051540280234,2.4958473927415907
1.792515359972812,2.1787827643505775,2.942750747615742,1.4800963748305302,1.5868066714574256,1.445042257602169,1.8608049202490982,1.8313923835271892,1.4270440977557484,2.28090379368958,1.4115733748027617,1.500325341400325,1.7361770760941238,2.4425522811229285,1.6968541749712311,1.2720122810177101,1.631352149177687,2.4270374121365816,2.0515227340811686
1.9525111443718641,2.1997154127903404,1.2181303792197844,1.0195840480388383,1.7453616887169083,1.7183137616709303,2.239099279386636,1.7316235171042307,1.4062704216926907,2.851321012687126,1.3148684605419054,1.3530057650147638,1.7546166177593643,2.7107015120866422,2.0395108015817245,1.2141275837831098,1.3899823556830562,2.99598772029875,1.9697403963909486
1.7543045550822427,1.9248073846757525,2.3276866202721576,1.6743166956112874,1.74791973803351,1.6864963640584418,1.9338040859888124,3.0844346469231696,1.5727219761490892,2.656571508112237,1.4695048495495946,1.5161767611044286,1.6976084657295634,1.9080827016317505,2.1121207095259535,1.3174512643739673,1.5330789282260533,2.208540077245251,1.725052908541885
1.8832913766256971,2.592714751262697,2.669615907727622,1.546102002765334,1.7564460846301788,1.6768441474180513,2.368566947272533,1.9180586578842398,1.576379296947957,2.132575155633632,1.7691751145796122,1.5649866050991836,1.981582231591418,2.4967892921838586,2.4154028216213765,1.279446992889366,1.7347456235846488,2.504059293189153,2.0750965612281216
1.6825735173949146,1.97704375215879,2.4645642653051096,2.2660840335581187,1.7167588195558547,1.582802971388607,2.053174858281019,2.1316697664119415,1.4860915198012064,2.138172138403979,2.4463029104824656,1.5780998980079688,1.870250814326513,2.5560662978152346,3.164555006696808,1.2645344974958692,1.530369855825699,1.6995319581990678,1.895714330971502
1.8594054485305367,2.4383503579818426,2.7494556367562786,1.511289089464557,1.9683730346224657,1.4745530979721555,1.8041412101890701,2.1892619581074375,1.4065149123244534,1.9468417662901736,1.3852593159052236,1.4339190032384939,1.632883860422454,3.0802391081923135,1.9716456943965561,1.2678029862437417,1.5018128782827156,2.847120854592474,1.9842762238244616
1.7948530929141306,2.634162691578351,2.575491128477979,1.9898796349208077,1.8598770035795706,1.6697421304984668,2.0558788067111737,3.084924294613272,1.5483706608180299,2.0927983873734517,1.477989858021581,1.4335905620474028,1.8772995102998706,2.9105171142948203,2.09486771835245,1.2708279790409676,1.5246307997170288,2.5700012459666794,2.281517312348844
2.3680106811814134,2.6410992497107877,3.3141172750877614,1.961776036052575,2.0623044749944803,1.9079810326299498,2.845863095781244,3.522553665822636,1.7047528051752658,2.2985781711100364,1.5798221139337159,1.7058918185263845,2.035045773343357,3.330589448787578,2.0856754766393433,1.392113378810125,1.8134318253265747,2.7356676327465204,2.6662546699095633
2.044833499221764,2.7502051846642694,3.1871663498042193,2.829463422280066,2.3847859861628744,2.110333574769035,2.983480792159347,1.4473239476064075,1.6301308199094002,2.3983064252708317,1.6421866085703216,1.5976304863210915,3.290775005237467,3.4802667443158035,2.4556982986135463,1.391578101140134,1.6296502856320714,2.650295487552214,2.574907159080508
1.6622494754194042,2.259672550259611,2.3629788027842116,1.5831906682024242,1.774145764221761,1.5828289712397787,2.177565753107927,2.0563666446849296,1.4343167327091837,1.6264656976771272,1.525039330748134,1.438398805399552,2.676874063680903,1.0453025069000295,1.8348166925957203,1.3952328175290787,1.5323318069818725,2.062927521898516,1.8335521874952279
1.9232294789846058,2.311932155839082,2.52405135389733,1.8625158221372937,1.6906457685205303,1.5900091416232216,2.293801297097556,2.9729428986555417,1.44224615685058,2.1625419284073524,1.5604460041783743,1.550706410874201,2.375110867722293,3.832518298961877,1.9167360896468664,1.3948441875240425,1.708635658219935,2.379483874586938,2.2504500990897656
2.6998501330441895,2.251264592291575,2.420299477245843,2.739235545978142,2.617485185463766,2.8029283163816285,2.6477754784877447,3.1470934636091132,2.0724514455469274,2.6854329891790307,1.5788167784181426,1.8358931569593826,2.3958780889398716,2.707715557674878,2.8683448680468517,1.5645595828933703,2.2275097740585905,2.9904330113821795,2.8928486490192635
1.8099443924828136,2.0915719115720544,2.3181724008219704,1.5292556745977395,1.722654634275166,1.6035204421529274,1.951370685271528,2.6427516523659182,1.422625936173402,2.0820532302744756,1.3831478280249216,1.4809410194523578,1.845783095924182,3.689818802442064,1.4816835403759936,1.3489879171555055,1.8555628491674567,1.9260050686683392,2.369143112377354
1.9638358813945962,1.865657094935034,2.494263886438532,2.0120784319901523,1.7733586761138862,1.5506750392013626,2.172200092972847,2.791419121667401,1.433949072401229,2.103963167913888,1.520716948112238,1.6444743177548706,1.902334479626522,3.2840142671621684,2.0824994788086557,1.519643782420419,1.692912192930983,2.750485949645306,2.535357564491367
1.7180056285836505,1.9361713186418128,2.5043874252803486,1.6015313661965551,1.4654411613820035,1.451853334337115,1.9501129778682598,2.966516697488114,1.439035701694103,2.104414544971636,1.576252003017914,1.4282000591233786,1.901834687751416,2.7144388629534464,2.3013324133331676,1.4391223398738417,1.664156450955221,2.8395303687288975,2.371168346067552
2.1448832604802304,2.7794766139757696,2.8467927254984926,2.121191589521179,2.266310433919558,2.2603457907155167,2.7777057792419027,3.2587236543733837,1.8058242727776856,2.3823087702641965,1.451525244556399,1.5173256452960409,2.45360742769734,3.4711679242779216,2.289502997971217,1.4074665731951665,1.7474536750021428,3.2580451377246846,2.7151996903534554
1.6213166748584151,2.2049232015092004,3.291403731756335,2.2517375592866835,1.7898670743082061,1.497688898241684,2.2595299133352724,2.2526881132936523,1.3943874935561047,3.032514203438965,1.4121804301417111,1.4617696240516773,1.9511357931711433,2.8597090477025278,2.059609213099569,1.4094561291473933,1.8033473396207178,2.643475611451289,2.4014348323926753
1.762881495555258,2.4480331589001407,2.6401490960001164,1.758608978025431,1.816931483039646,1.570078422040707,2.467513115641199,2.2545446184810447,1.4462314887946048,2.990273652867567,1.3954242563535397,1.4182169007958854,1.925004900709319,2.8951782206252132,1.930712128098533,1.4077045967751574,1.6206177573718386,2.5424086266325463,2.2013105437239835
1.9313683421933212,2.177062172598129,2.40868865924976,1.7982962066813843,1.6763039258128727,1.5380540737043196,1.8249411679995473,1.9653607843346883,1.4162591807244214,3.67151420652883,1.3231324197983345,1.4261991480148697,1.7364084173472176,2.097293495634814,1.5979792245268836,1.3761470959976756,1.6555397083932775,2.19973044464626,2.0879120507059725
2.3077918591297513,2.493369147618626,2.4301161402393907,2.3085130398906406,2.4294421124901966,2.2044128935948493,2.3088182430268205,2.4788900827336633,1.6003054618956205,3.2652705007201352,1.471007293983725,1.7788391124804954,2.1823899389544223,2.6126263002768675,1.9927095972395623,1.4270763126178345,1.8852721708807736,2.4180049146453406,2.5732344444051165
2.3490605198686345,2.0110155002320824,2.1195323645916613,2.4221009427692195,2.378440542514546,1.8987263944793114,2.2590804998604463,2.88571109156215,1.8940351551076715,3.7790068977063482,2.0215769903081395,1.9128728153447347,2.5687679676419406,3.6132195223791075,2.4877205552774506,1.6339195740469667,2.060007382006679,3.070100452484451,2.9233737550397745
2.446646205380321,2.083761431463214,3.2087092308057414,1.7998372863272123,1.8106686276465833,1.6695158718724472,2.184209396352544,2.3561747472715013,1.5771528418845844,3.9737082350853665,1.6996355507038003,1.646483870544805,2.225157397710962,2.5193118259810157,1.8948142008050954,1.5684558986936883,1.6716154468607427,2.6905280784692334,2.7525169731324093
2.3321476831727077,2.91160168699172,3.3366259775040903,2.0932215468480453,2.237755534884072,1.8512776974020044,2.670710626845833,2.1542273958300164,1.7192100944039062,3.5393612865816406,1.6561194122574332,1.5378997167451018,1.9142017277637509,2.7022488780560345,1.964434795539996,1.6019778922179457,1.7941829450028994,2.4651533383144932,2.5147938730737427
2.5128153252841323,2.1516261957160063,2.7497039518024473,2.9282505296698917,2.412431564219567,1.9004203728560478,2.6822536860951,2.9364393302109506,1.9461778137077153,1.944203590274005,1.7303186159893005,1.645980988193946,2.436162591654569,3.5060825204635253,2.7232579225896463,1.5232704492449776,2.0460260998757875,3.211507403052994,3.5688097700828156
1.1289682237023355,1.0356650744434903,1.0456963263028194,1.1732720974840056,1.5387186429567503,1.5324065872465809,1.556053586131832,1.7672451811495302,1.3258444519687842,1.943633710614179,1.2487778194510417,1.2462696196647687,2.192622627381724,1.3576294275801197,2.125919974515719,1.2742266837940839,1.677649304761771,1.3542740853818098,1.4078967169890182
1.9898048272067244,2.4873801017843307,1.3128054529002626,1.386194382340978,2.2748296416442892,1.9839528544351384,2.445788435706633,2.0207299959157234,1.820271902385617,1.6974359596466893,1.7022626056701273,1.7626034052439725,2.0990332705007626,4.071060062815355,1.972576235928441,1.4807923242608805,1.9258752280227789,2.570670835457205,2.4215931582398222
2.8143575784340142,3.5236942780833083,3.5429712857232363,1.452537685208885,2.5472627822107388,2.3558634812343375,3.2912808421794013,2.5151040700548806,2.2380999352171607,3.524995179695382,2.6551510451534734,2.258488737919264,2.7782233148466493,3.711685009892524,3.242734734753932,1.7597558234596093,2.350968992823147,2.4849319477171026,2.6255722689390897
2.2933948022559694,2.9012716870195496,3.6193826617228138,1.8527271045001106,2.0669270529832295,2.051183129208179,2.1358307002949193,2.5874444267124366,1.6094111737943266,1.8740646968840766,1.6765106698935122,1.3712846711823137,2.3844130214753334,2.5406181313057274,2.446653270702838,1.4553323824271727,1.8233830152363575,2.80711340655092,2.4112892735534546
3.5267757160530073,2.1922446970164993,2.61176923764835,2.577256315087221,3.1619377569389417,2.7047918737006182,3.06847397198082,3.6004420009956375,2.06213721376971,1.6619359292924178,1.6152746327001535,1.645006145346608,3.1789422115911763,4.00397998320234,3.1217344996377263,1.5398833257702247,2.3893696011497267,3.4911898568970523,3.1513408557132747
2.0218737402942346,2.114314612106467,2.4956679748871653,2.0054307627408043,1.846445173706062,1.828900490731821,2.248674267064526,2.1087520540020765,1.8487661931938377,1.529159551844609,1.737198486617046,1.6699576460008323,2.6730428596466065,2.7267518133911834,2.7442878982965757,1.73634513097938,2.181576962630085,2.204854062985992,2.4976055123915115
1.7111788783783914,1.730130270674747,1.9175466049273204,1.7781861975435922,1.6874227364537775,1.6009313950023385,1.8568344451862762,1.8837850899321278,1.5704922610092007,1.4996356885471749,1.629335421492557,1.4626860738323075,1.8061376960251845,2.2464624793285917,3.6410836796295842,1.5149200846469617,1.756854712412008,2.8942656747322153,2.214065561253551
3.508985995250633,2.721834644836563,2.1377882351386885,2.774653358380164,3.258923316402738,2.8632235769928753,3.09701599794172,3.8833912904569416,1.9305145759716529,1.566730730059607,1.8505480543133779,1.9276581730421527,2.8299571957017973,4.219450625188497,3.0870687910011316,1.6995714663820944,2.2060872496339963,3.4644271712394596,3.48468215636897
2.2775011414695716,3.0306741036408935,3.7896665277172206,2.6983164526184673,2.736596975220332,2.1163692289712475,3.09851510352965,3.233514602163728,1.7919783967119465,1.555140538632301,1.5832904731526614,1.8913449821684494,2.6338244651784635,4.1115631338091685,2.224079159929388,1.733192401437672,2.3307386615624464,3.622231385192834,2.918721296551524
2.384297526700741,3.150988355347069,3.5402757317480757,2.557570519718217,2.3052951826672525,1.9796918965397803,2.6871411852073495,2.6199574884433003,1.5505159803812802,1.5007408052391746,1.6927461836732738,1.8132765788554237,1.9701294157626688,3.0932126839336465,2.0050838318824233,1.720005738293457,1.9333179122755142,2.0955141718914416,3.0263196642184633
2.8318355011930523,2.4346985425973613,2.2704774688578993,3.0185861405780288,3.159418690322101,2.6815704661599304,2.9789189390352013,3.3596792438899485,1.9208620324581422,1.5912502348383266,1.766692228793041,1.7082867519923794,2.503661184754298,3.2801711352843905,2.506869690410537,1.6683487714639504,2.1305346939080936,3.066198655186751,3.4974257625301286
3.2198048512852915,3.302180064454134,3.002253374379679,2.638932517702834,4.007334853651465,2.8157876834827507,3.589818245365743,3.5587890482425966,1.986296027867739,1.7596892971407858,1.728559388616752,1.9863567503652109,2.6380233034415044,4.177948663810036,2.748944489042187,1.835309526666024,2.767979625468036,4.0208791057129085,3.7003126985849746
2.20571323275758,1.7923890491188843,1.9542002136568992,2.9235676732016804,2.1654350315576805,1.8909327968231837,2.4216230958907907,3.1438601169814695,2.0036143334081316,1.8428752752017235,2.4609244279319573,2.0048332803050664,2.5872003659088945,3.0470037226013744,3.1455165415319915,2.029190607197889,2.311346161904621,1.712727844399928,2.9433774387021847
2.7110195626285027,3.5084085781848797,3.748774656102644,1.9443018990934828,2.9269143568337315,2.4300326791187894,3.2144041690243816,1.8645472370603584,2.4499968850814566,2.0010095721075523,2.739243224002259,1.988533041508743,2.9104115312178322,3.8075131649604095,3.0261531598310527,1.850110381168956,2.2823824876384133,1.9945141232652173,3.286177354578198
2.0208887563227664,2.18394305237289,3.3844376715604954,3.033981290925059,1.9986894259424204,1.8713116769950933,2.496676185123047,3.545576219186577,1.6012890783432465,1.7865631577102332,1.6758730940428526,1.634657018872172,2.4988571267265502,2.2764808538846246,2.328661333257154,1.5428493591392993,1.9079928693511612,3.6549583422272565,2.7201399398021144
3.272575713698408,3.2518891246349977,3.4273915243275983,3.3267947873740344,3.15622121153565,2.6836648003554058,3.264902524086182,3.4450566271658647,1.8997668976047366,2.0750535342436733,1.9034839071858871,2.0526477943618153,2.3401438752788266,3.736861229286486,2.48617977867,1.8988560754170152,2.7938947830408627,2.9795539657633707,3.425428028542736
1.2290970248875952,1.1368732803302817,1.095213490917756,1.8409920849195922,1.1349089233334249,1.2084317488912701,1.1328090724451163,2.7671435769209403,2.8351794778181243,2.647064343531195,3.0501340326940696,2.356973012091543,3.001862731559067,2.0610045784356834,2.453483005169518,2.3821206176019216,3.1872175619922976,2.2707264032117753,2.990820645943396
3.326009770994781,1.759752736394906,1.796545567630212,2.947335762211056,3.5414346451194696,3.42780429244273,3.4559654524656302,3.7963826612927996,1.9248429841288792,2.005545166223954,1.8772719630541908,1.667395060070937,2.752489757755514,3.923829052844785,3.222281675197864,1.5966374966818178,2.272852465675387,3.55742457398473,3.0821896598940026
1.9124290287591277,1.2628604323380241,1.298925572266634,2.1291363307690414,1.872712274095144,2.0820803825935603,1.77741793902357,2.2948390892663078,2.878850872879171,2.703235446874169,2.4938188579636855,2.517409406211831,2.817140906773746,2.4725835373649985,2.8430056543220914,2.2199686206410236,2.9843611887814667,2.235574030737076,2.865617972292392
2.7688620728596374,3.2882601647319234,3.254668816451712,2.5201675341233707,3.466758873404094,2.450360889510819,3.531206654048792,2.3432387174003453,2.1398088398407995,2.0786603463408295,2.2488270863303663,2.0263222850195595,2.496304255112089,4.249341618431939,3.2969854945022345,2.004747229431423,2.1325510733803683,2.094513215985462,3.1749470248455904
1.961534939987402,3.399198922359784,2.9731399949000648,3.2553339465880105,2.8142100441424813,2.9116776555804855,3.11770463466644,2.6881973010619244,2.41066928864879,2.158665690984206,1.8674630785440385,1.987631632811163,3.0364066940352337,3.774787520041207,3.2205097846349062,1.7809299028581713,2.3512087958953516,3.5159797100683186,3.3934662652147325
2.4196297555168207,3.31023275908154,3.1507038337329343,2.743064944229582,2.367610160513114,1.781491035849006,2.836749996577276,2.442800705043916,1.6574263889712049,2.1479604816636786,2.0176442439572346,1.815872916302276,2.292804927136326,3.7530180993073783,3.0313919541082064,1.8685720764400686,2.198923784798592,3.3099412924120006,2.600206762959725
3.9115006846197717,2.6636426179873864,2.9193038577860846,2.889869106541639,3.9465733933806795,2.7471511656860277,2.689235613941873,4.11739510173646,2.0442391753176135,2.7281522293515197,2.1527050775027377,1.6849855893507417,2.638102611623124,4.186302167365703,3.626287530600144,1.6602014067612243,2.8493922996268712,3.220513861915684,3.934308281258239
3.828335371654675,2.0167270758644875,1.852079882069549,3.379864367784267,3.187072838016298,3.334231778429733,2.4873643982427383,3.588712416574086,2.0850543737009337,2.4458680089572775,1.9950275077202266,2.003705691756258,2.5306814983475063,4.1981410283618175,3.0588670528660256,2.0342839469033356,2.6954309323248338,3.087232391089939,3.7215553540005195
3.8674251401414317,2.6334096283549595,2.485619448432509,3.0971364918513236,2.83037205491704,2.6867157031611404,2.797945566692265,3.5502856943177616,2.090193003823691,2.570166438921073,1.9486298503363342,2.1586843151774207,2.5752436134033285,4.078580562447384,2.9755638384000305,1.9986649005901485,2.8177811985942225,3.5219859078379634,3.568649192922365
3.781783673368414,3.2334319475413156,3.305634255022776,2.831376023560755,3.618422595072658,2.4706546642156066,3.7112722635025026,3.719275494280364,2.0492292314615597,2.319079442050335,2.01709186803344,1.9283063057089975,2.388071510637287,4.1605046374235855,2.945125090079317,1.941223969815395,2.7099349765486984,3.8968722837998535,3.471789776626748
3.4043834479194595,2.107261511838912,2.3934958331488687,3.1103437485365157,2.878225055441172,2.952807262983607,3.4584541456184374,3.2840437229257198,2.0771115479279856,2.3950101244380635,1.8430614856537768,1.8871185376055524,2.60894076644,4.078079552167116,3.2687039872246517,1.9991113044397835,2.868445423221833,3.9351888228019893,3.9250298502074243
2.664233461271937,1.9864088450143729,2.792531388515448,2.9262888426809055,3.116606270873615,1.8304107385938848,3.6531256383713933,2.5878595288149,1.8487027312241586,2.797499003718086,1.8433461441037402,2.4433334768041752,2.1466062418896144,4.241740244459899,2.113719873247052,1.8204109363779941,2.9368490264711613,2.9332622276293505,3.891020246980527
3.273929572661214,3.1030118181658612,3.2426314536053438,2.9587129401539336,3.498107080401465,2.7864341477496137,3.578435496813803,3.464046730851886,1.9116893506924773,2.798745190698416,2.0693300972808717,1.6093199515892938,2.798585051686864,4.1123688922968515,3.29493049222205,1.9661914250573573,2.9398993068011623,3.614943885156106,3.6792757334735096
2.6494969818605485,3.4443720614779734,3.4005917541809003,3.246903603035643,3.4738315654258685,2.559239876736412,3.859723280763432,2.9733010437164045,2.1051929430661027,2.6290222897444395,2.107809701325961,2.0011926624266834,2.722471059451866,4.095458418334237,3.1278401340746678,2.0033121148238817,2.859938777533115,3.3423722703195766,3.964914335400584
2.6410879925305055,2.833249449806989,2.9119019124121706,3.1939342703050504,3.124337455767999,2.5323071945384443,3.406580435784619,2.4544535294892498,2.07989241110872,2.6282432282120562,2.18023269203258,1.8784695873342132,2.588296823136062,3.9269727638592133,3.3541688115524684,1.9809216176610305,2.898444865483296,3.2390139926576254,3.713061658229828
3.822098417056214,2.718028753086147,3.372728900055978,2.4343788264787185,3.653785491534169,2.8964035380538067,3.739815416172202,3.0009490275275392,2.039383638580869,2.2060031186422875,1.8954587046525064,1.8128502469987096,2.3440998319717816,4.183871481706423,3.08807574284333,1.9304820048575733,2.7861675369104835,2.717759066297957,3.568902820932102
2.829349532016627,2.793075809618952,2.7290905994733183,2.296741833972175,2.008840403710343,1.8042457480656222,2.4538701496200988,2.506643094955011,1.5662596760092484,2.091002247758558,1.7944214194969097,1.6687076041821631,2.2037333937504333,3.163569087918378,2.5523725686907595,1.7596022877545152,2.468663731579626,2.219120261046049,2.8657667961857953
3.9398231146755966,3.190273822111502,2.929225950404381,2.406241451468087,3.474819362045833,2.1159261982712723,3.48621737261231,2.9578708125532853,1.8541063297029163,2.329057588594676,1.9213770295295878,2.014119347923913,2.350322711335618,4.025988727371199,3.099935310704871,1.9928826166608493,2.905527746174721,2.7716552858184684,3.5073243723170036
2.330146188874475,2.0462776080660037,2.751678759679873,2.781247790576105,3.6324448195252605,3.6031801871623563,3.4291196804710213,3.1205080890007215,2.228450634565266,2.354141576836051,2.0813893868105833,1.7958610172217424,2.2878536703054353,4.087956485900479,3.1436992709388143,1.8588548886422869,2.812677773271806,3.063166799852537,3.353357132925078
3.0497993606676133,2.978019231284363,2.190170058908692,3.605954079263636,3.674633091708584,3.2795322797860456,2.5902814179518043,3.0374993916061293,2.6117376006015447,3.0119885756167872,2.2883500241626553,2.3979087816126086,2.9630218384119797,4.109194114543871,3.305022094654665,2.1457316097696952,3.345009041240189,3.6022441471968363,3.890789547857103
2.6278518041444343,2.404391507109213,2.1303712897866522,2.2149158437274026,2.5123203592896686,1.8675806029915407,2.586742403612426,2.3832794887009006,1.7961857614473178,2.3067141250330336,2.0407340093781072,1.8098885357252188,2.30324317642321,3.8720551817662936,2.9128203086106,1.8984762752720412,2.543068179602996,2.357257094624131,3.136481748870405
3.432987884863282,3.125849599024073,2.865631116075582,3.32998058299887,3.674033767151089,3.117216975778131,3.5195683336410406,2.8148847521646165,2.2671684328143824,3.0292531341440823,2.1937824773347248,2.195032129373953,2.7126118393651857,3.9099396113823865,3.688067284835071,2.194730692139726,2.798390238572316,3.5232238776329123,3.7790042509764112
3.582983961738545,2.6401886386244144,2.28629852213512,3.6588994237667385,2.4837364791898735,3.532145893560262,2.890419375852127,3.4946018344110157,2.915068781350859,3.284691166660231,2.730749798920893,2.559930808667651,2.874124852576428,3.6399687539860857,3.9171142907224428,2.2895437073388063,3.6014389960603688,3.0878636515611015,3.942854092390199
1.7490178301942274,1.722955237580846,1.817289339780831,1.8630712771016396,1.8725953925985466,1.8065089324053978,1.8402300334080928,1.8634527920704984,1.7354247297200611,1.943891307799153,1.7919435844968599,1.7946722709546925,1.9234198808283458,2.0607532185472257,1.9624034913789918,1.7391504173249677,1.9860263595455367,1.939787817999746,2.0349322037809254
3.815300803062409,3.388331246020286,3.547196357768548,3.3025411399884135,3.681977422685235,2.7441908216786697,3.8268456155014396,2.485919502471375,2.1854054174528246,2.726058032078957,2.31845359256783,1.9025256255142684,2.7178705759431354,4.256336776738601,3.453030194943695,2.012203944995788,2.763215980026381,3.5546876603732507,3.6157749084724427
3.856711457635103,3.095957722579573,2.8685900555279065,3.674160161812949,3.9181422473533134,3.308649431251537,3.979938822452433,2.6842931630335882,2.0799275134981587,2.889155529120013,2.3995711647970204,1.9965589188488964,2.3852626913186112,4.151506370323747,3.550117651683988,2.112079479097258,2.7093275042755636,3.512661798300921,3.6813700131623
3.4878409530242585,3.519736883574573,3.3419767736899124,2.9206638685740893,3.385213535312517,2.8975945950975834,3.280256080499654,2.574331074601727,2.0029272078163127,2.9429433844000967,2.17429465939091,1.8918972349926726,2.47665897017188,4.194062945591404,3.1097392955508085,2.15648024713883,2.9393382769402963,3.1516172406389766,3.352435334940426
2.918677115124433,2.882779113153279,3.3112057529549856,2.872992578243243,2.7720049264527806,2.4937303878867767,3.565641751395876,2.3740257468287496,1.8778087321138943,3.2043493929793243,1.9223275379612141,1.8424921216796195,2.3959735651405443,3.882756122513401,2.9782502168737386,2.141622228549176,2.7346111460726017,3.28788424418474,3.54573405897152
3.080036147017117,2.6337757162917548,2.492317916378014,2.6752565572388156,3.0322807457252603,2.8045215433078434,2.8453034127002783,2.6843675715416757,2.0476401267313475,3.42918568239553,2.087863741940205,2.0585553894229585,2.510428233427088,4.096912355875448,3.4462490439380384,2.0965309605901052,2.9241202325397526,3.0626936466080124,3.272515677526909
1.1946451748800804,1.0781415151985247,1.1429137379413299,1.1902395767165583,1.49953790341091,1.3765603038357554,1.3499542536863371,1.5573170353323669,2.7777130579745797,1.655994908142565,1.5127382743218836,1.2049017822891894,3.315902041493972,1.7994861699842197,1.7729659472302073,2.7741258706541867,3.1088924292614912,1.5367527134266576,1.4510133440393007
1.875822829932632,1.430592105861737,1.456320344168454,1.760400457733447,3.2702063055545487,2.5330480955821173,3.0749661632980505,1.7784892751288879,2.333807410886324,3.375821472453898,1.6122664411508518,1.783806528259665,2.3493433246754627,4.259122814222772,2.8960511322949443,1.7135267041040056,1.9783070072261595,1.7930884072959838,3.3231236580811414
3.8729757237557245,3.611209777261259,3.5548614141041055,2.4985357118810687,2.410363535163362,3.0971965958639567,2.7333620602857924,3.4662898004231204,2.3514060230435194,1.8295167754986938,2.9574172480568963,2.019007254059048,2.529235589582792,3.029441832887207,3.835908148609318,1.922711840884743,2.1553483999455447,3.962336449612056,2.6166994999057214
3.196054727980543,3.439340433463443,3.650016404703215,4.11213317736871,2.565547382473826,2.7740662369893205,3.46420696309379,3.128501884658726,2.3313144436929862,2.120362428598299,2.8469391037579523,1.7997301381478517,2.6480931188126373,3.545552024314368,4.017711525751078,2.3151341876927853,2.809680694742736,3.85359996141072,3.8935358005718603
2.289301257245,1.4141435478470936,1.6849893477619948,2.5706629660426614,2.293873768423321,2.268253538080611,2.2550655419170913,2.176176114841385,1.9704808654484913,2.1240955784387663,1.9029180730752444,2.0087384751772634,2.2430102914708994,3.311182122807562,3.1407430563068406,2.1799191292807363,2.423775995047249,1.9572213005399501,2.8143537330406456
3.700881543719897,1.974965912805238,2.413554039974647,3.8769384821666306,3.3037610804770092,3.497007847604447,2.68216588837761,4.046528303790699,2.330515560614896,2.5257223457308147,3.1074045431261745,2.231758229598682,3.15451649646592,3.8461054452649326,3.7741062347617995,2.3978026767316196,3.0840738784274175,3.3369976102834107,4.009015490644651
3.8131142116504204,2.8016118184537486,2.826506307859558,3.243819297050164,3.5775007899147444,3.0243059833612853,3.4019426178171144,3.916462640944118,2.634685512526652,3.2868098861273642,2.4665552759801432,2.8871317740422104,2.7800570597461736,3.7851685808038398,3.798544797691212,2.201625483240605,3.5863577957336084,3.5767565626042077,3.714222953898734
3.698498321278579,2.449843366954566,2.560421123691147,3.4141115063584797,2.7390234696357614,2.910761923297298,3.130116130332564,3.4698575948995796,2.0761797585038604,2.447230406609993,2.0597757715524225,2.2105886481547166,2.6057552803764605,3.532082890687263,3.715865617692929,2.4763306771130926,3.247776313064044,3.6267998936332346,3.8580932462448057
1.361486091947025,1.3596313252038876,1.3262826971333834,1.5219252905051512,2.4545565729020713,2.9209840178704725,2.0664464097289965,2.1388517347590597,3.0563821235260953,2.2075163120183654,1.6857357682103253,1.5558603649294267,3.124951006698522,3.1708101211371424,2.577921992016359,2.7524567521114442,3.278195876878453,1.3987631940906051,1.7590135773831943
2.163167004967029,2.195871886480134,2.176302828206552,2.2383829757489764,2.510511364668711,3.5938604717380054,2.314429494955342,2.3584092003866894,3.5728239989187323,2.0185103600042797,2.7567312034128832,3.259486556118383,3.2415468238292506,2.7581130279428607,3.7558179818741446,2.609708374854515,3.5743377629216355,2.931417889806179,3.9757915453937436
3.8134530297054914,3.327036959934043,2.5723431305663573,3.792948368978563,2.9501326245591595,3.5694700903720333,2.7645392479801205,2.800096888294655,3.347976605123901,2.171177875838303,3.122553806048823,3.059623502223063,2.569866255055748,3.495431821826158,4.101000380192946,2.192492862866901,3.026525419822658,4.270382536750215,4.1368634237104
3.854211417547172,3.6771584370824937,3.6389846904248317,3.9021194911967725,1.9515067546966758,2.2800090352094533,2.3231931770878846,2.0683289704401893,1.792415997150864,1.769322889981387,1.9374189090998364,1.7004243974985283,2.215360206965842,3.0048001738109114,3.0959419221568574,1.78818938775792,1.85873094964058,2.440367377839166,2.76972438347305
2.6996078066393085,1.8985792284336236,1.6113933123736122,2.103743672394922,1.3474207393450865,1.6158053604943705,1.7252604469657322,2.6548608988357465,1.4303247314618464,1.991762640882823,1.9909072586188465,1.9038446423874142,2.2806511128428824,3.299098423965961,3.3069427918691945,1.807469957659799,2.117984165110766,2.564425556613526,2.825354279121245
2.8543426231935944,2.247904510947127,2.1035561997280534,3.957258530486244,2.758999119456055,3.0084628971703458,2.2384172126400075,3.2014255562697236,3.436080171913257,3.474792895122717,3.8574595500080027,3.3687890871855655,3.246147720267162,3.0891106059167566,3.8118743078252297,3.1034676794437073,3.330476246137354,3.171379202257908,3.591794770030563
2.868378524694236,2.4197704084996308,3.0765525012661836,2.843066211980689,3.126052541113867,2.9489468031135666,3.587285615556623,3.8718967360553758,2.0968458824606993,2.6788014988262883,2.5492439529677178,2.2832985375964494,2.3707779651259484,4.040240502045799,3.668717369315111,2.0252698658853117,2.881981343573089,3.854539157300374,3.3912491046957123
3.3321709915773847,1.8447337872296998,1.9686272349812917,3.3825315671557434,3.7767897559169255,3.5812823173220654,3.3882643853855536,3.8773879490996683,2.4790707337543796,2.5894941706119354,2.9487482015989728,2.3579408625447784,2.9081637783032437,3.427141057142017,3.974031005623807,2.5504466177939635,3.011024240509516,3.8256313057460543,3.758280232146528
3.7257940054516756,1.9885349762100495,2.286389772898574,3.082692494013,2.273254779794908,3.453744764273029,3.190152352823575,3.903672323173335,2.696141842456194,2.9350989467394966,3.1271712058105297,2.365888132945952,2.671951706350379,2.761460409863739,3.924673693776093,2.1310812995453965,3.6558957171265956,3.886414457822135,3.90656305776773
3.453159023173814,2.6169459511732036,2.989353316633729,3.6386724572148514,3.6018421286211417,3.1881066720236007,3.5192437831795638,3.0449505053857457,2.854550904464542,3.3121774024325368,2.704881718225878,3.0797661115694064,2.78924705681444,3.488849771336069,3.708884847888965,2.5824030147213435,3.6039248444214667,3.4010013992101427,3.7947129025969404
3.882374070434952,2.728848810247971,2.041568010890893,2.540497651524686,3.4525461632623644,3.6205286566830828,2.6928293010842324,3.7610994192281306,3.229257479428294,3.5416192656835643,2.916361728394779,2.742074664914531,3.3799502719235317,3.8954308416771792,3.916353814589876,2.4777794579233348,3.4697054632607784,2.6532297632385897,3.554987126525617
3.3290127594397307,2.1939792948177774,2.4929935079305103,3.2533760633706694,3.633661745782025,3.727762614334677,3.8689159919182208,3.2619367341808303,2.249870143347042,3.0523310895014535,2.929562289212241,2.387585546003237,2.4466857557549173,3.837213958445649,3.887702391492258,2.8063709146433884,3.2150621886103807,3.6581828279659634,3.802772919429642
3.562114528108165,2.8174965857458627,2.8784391937986253,3.6209624119294475,3.4537311244193263,3.6151866529638657,3.3883386920880314,3.3232028909476123,3.3053722467395064,3.727337725450228,3.147549509764917,3.1901226566728083,3.306813549198614,3.1895529695273552,3.806548980417485,2.604607133487456,3.674313491910929,3.3528162458156663,3.7836292816567583
3.117032889952684,2.9242635523731777,3.347954760239704,3.2281479963295316,3.3451720934980798,3.492777234386391,3.726740979669882,3.022448664168438,2.673573466925371,3.2801103235655815,2.5509275912455562,2.460010658131533,2.610803248512011,3.8513605962751454,3.7064555289722407,2.35248631223554,2.95612609870734,3.627968378481341,3.802869780634331
3.7907513602115674,3.718280145630539,2.7892300955088216,2.859704623869878,3.772141758321417,3.1523004575796705,3.4214267737565,3.2595840241153216,2.2527309236952044,3.3257774425078708,2.5629599765879734,2.26782898299542,2.9894663410793454,4.11797497228656,3.9954874524667496,2.548662757598293,3.3730000102734383,3.58381530609289,3.7846602349725202
1.9965907971912575,2.022296247111454,1.9193842869261157,1.6404450782362874,3.5834702168161,2.70362326982239,2.507496003397647,1.8631891012322066,2.280643016047438,2.635335419364052,2.1675691916317663,1.367416962142845,2.97488629039694,2.901635626894933,3.7833942291304807,2.403930797928502,3.693186878892241,1.5919800697879898,2.3484930270353495
3.6594499549210737,3.7626457292102433,3.767199843890127,4.104445312421646,3.1405912032306444,2.651167833550419,3.3394365631564074,2.7581668941668984,2.643811709577591,3.314221361188354,3.227630774735727,1.936928942483618,2.8729782273942654,4.4958677481296725,3.680629363458993,2.3203035667763245,2.432055163263717,3.2908827452248044,3.907118852191351
4.219510182212427,3.56783010612801,3.4633131553598178,4.179536107767959,3.5610895711199992,2.9471693665586773,3.9178306049314613,3.7612344948677676,2.3927370396278107,3.3276424387875236,3.4270296926234756,1.7393413758845977,2.882862270450045,4.319806143288995,3.861702271418055,2.3540426112725594,2.6920346190185658,3.8328523498666103,3.971378868102852
3.8907611322350344,3.6121974999739894,3.8283635336810606,3.507228190853895,2.0720083471509074,2.4663335960958963,3.2594963328767252,3.103857794561044,2.03411917314496,2.900835562460069,2.921093509860875,1.8073137614925818,2.7713747036196557,3.4343820100081963,3.9704503179869572,2.4041461946771068,2.3548980394695143,3.4018951521727194,3.4767477804353786
1.983679626835237,1.7440128903653325,1.5808002237992937,1.7866432465588804,1.7585462040334063,1.684604103754974,1.8513987350472705,2.0416301623129187,1.5850069815351668,2.143913161627848,2.579278867049399,1.5317180242324577,2.0181283606818954,2.179064598626662,2.521131787946759,1.9008164825827971,2.4163556716273864,2.769382590922768,2.5311153283997374
3.345461743663236,2.7452619265011595,3.262097852584853,3.2521906963608895,3.773976753470669,3.403836644785082,3.7303466031412253,3.9229296919555976,2.1901465869454992,3.2505151104446375,3.173914918325695,2.856326488167754,3.1392272851964753,4.013014031981854,3.8112512835104653,2.9269005333024367,3.5667144418226946,3.5921721932990067,3.610956901798483
2.862182810933626,2.1086861397803807,1.5843330068853154,2.409979096124613,2.955043958103953,3.1116933319760975,2.274101743321847,3.5530657395120904,3.0649023301553675,3.6810617750238235,3.8875882656790597,3.083365778119215,3.663300790328867,3.6770689804894086,3.819868934496222,3.254985356812001,3.6185020383736615,3.127209894063318,3.8004989861901874
2.18119369106828,2.703168734244652,2.1645460409415658,1.9365399323769978,1.5987153731702564,3.222931800642813,2.5753465207040676,2.221873514492747,2.9571687000184665,3.038180982359823,2.9279199068235857,2.21401095226966,2.9947430421497754,3.223318354647275,3.7294229003800377,3.1922334177681853,3.6307106808523515,2.0596707925034545,3.117843137593587
4.0112045060731205,3.6415194196907623,3.3287036375097117,2.6250890249094767,3.0979963964301875,3.6534740444235427,2.823172336306611,2.1302567827813736,4.102270821199206,3.9031880911698384,3.265040625978539,3.638949416989722,3.6495932870145227,3.8632610482377703,3.603865109622628,3.3405222924462885,3.9002809546303654,2.6693433266072497,3.6230025934333203
4.08702938697768,3.7961793164122066,3.795719545418126,4.029916457534029,3.932817058343039,3.6452325313461076,3.870962812665291,3.6477585863531545,2.5487642466875466,3.8617329346825757,2.999701551489135,2.680341915419296,2.4241541042865293,4.256945114136531,4.057284598547935,2.159495947142669,2.5812726686936664,3.8605535594046394,3.7853121810981687
4.013914017667853,3.7490298206255326,3.824954876319496,3.8366843587326445,3.7959706622121017,3.2730505984752787,3.657918424937533,3.2512173052852313,2.52903610298362,3.9301664896103565,2.4036707542074205,2.610262873047201,2.663105632467572,4.050854423571366,3.7075771187818702,2.246787878897683,2.859499846175373,3.9225092326726836,4.016998796900891
3.856276946861268,3.283828286757485,3.188386869711872,3.753458556209364,3.1261222224755256,3.9787634396249936,3.9309576900913457,3.740814661110989,3.0569370618835396,3.6553299893999105,3.252965566633091,3.116644480396082,3.3389717650284503,4.1471180396417076,3.9770903484847997,3.3435152570748405,3.45202767887221,2.983660666558516,3.928828764404147
4.093935422776658,3.6941571521553973,3.6237840123018117,4.035775735178334,4.003235742955963,3.4064514169699858,3.2448461656840433,2.8784546293710873,2.6983030658685085,3.4294670267517984,2.7347374605017563,3.268045838440837,3.071475955355813,4.173125994768221,3.9718822559241804,2.9848799810802094,3.5759469063013647,3.901353675335507,4.055674547094709
1.6688818286929183,1.487308774435379,1.5910964717560492,1.9606771186173488,1.6247439618122075,1.6558435577491517,1.6995916660175676,1.6039586180427128,1.5417406622013115,3.709655915594583,1.845098914690998,1.9916963987561391,1.9439367925295734,1.9118683967877492,2.179675232141674,2.2344852158124797,2.6570087984353306,1.8604981323111345,2.6626549316004047
2.967839032975071,2.117681339420048,2.3488778732091773,3.201496895542309,3.6721166807132772,3.3671246172942944,3.364146953227656,3.0226774903418367,2.231049089801313,3.785964090556123,2.7159640451991334,2.270891777904902,2.9085341669366427,3.9122189139812145,3.6226948640816774,2.522253239303941,3.029611831553054,3.5788296647458613,3.6043684193726047
3.1808340003100986,2.7736912241771243,2.940587776405505,3.156620691193139,3.5093226907293555,3.6715826401287757,3.7060493932873033,3.580074843971141,2.5795351066280956,3.6217608724614903,3.9104122150077787,2.599675655329798,3.1557794633737664,4.1132419146935675,4.054956293972438,3.030163700212222,3.751743068339636,3.7640871897914816,3.82017023353903
2.8697484937007385,3.2620469973439694,2.623470861449367,2.492157339249295,3.2527647005829543,3.188936592087878,2.8115721475885036,2.62647065209783,3.191749908176099,2.814520920547682,3.629879563967651,3.332961635693686,3.181605720034826,3.844308021109401,3.7406593105632604,3.3720035681227816,3.465242715621746,3.0417729840077286,3.103590072141139
2.423773833737518,2.352464117029141,2.0445652548122593,1.9294769305094228,2.3954626329576496,2.355610966489084,2.191705071494338,2.27369568429859,2.1164604799612867,3.362777711911513,2.6720476017890857,2.3276571903335115,2.4810024367486267,2.811106830335714,2.8892417189720714,2.7292790827732554,3.3597710952735707,2.174086421743259,2.440000170301299
3.0426796217562746,1.8556593235583974,1.8300121557222988,2.930727427652976,2.139888682144381,2.6929212854118223,2.309335783902659,3.800006067173517,3.528282744164683,2.6930123078042687,3.692722724998473,3.27886593011265,3.3317669289024727,3.2862368133269815,3.8037910101485504,3.3277340639773305,3.350807544222978,2.9314915707443983,3.614729067760637
3.7035864343739067,3.2972964024405593,3.4543883820003836,3.646328023518579,3.3504224293711524,2.787696637138667,3.716654405129971,3.464117794562225,2.9017397748538603,3.179871093595972,2.8548189225874148,2.6366891832866433,3.3725361351381067,3.915865185981799,3.5540922865432556,2.613546268190709,3.1683757757288533,3.7169568754000424,3.794032479217384
3.1470218080775436,3.216752596852899,2.784497435659292,3.0725115831000784,3.649852630321672,3.531629387693376,3.452012024394649,3.4492082271142777,2.684057768167486,3.2835072625084383,3.5610431831189246,2.559917306597297,3.626727860977316,4.056781690920636,3.8512498756805305,3.1096115045273334,3.440062206634608,3.5931746668947233,3.4926490151658602
2.537483732573136,2.7411472558382597,3.549187788273838,2.217533893612533,3.6611124481456674,3.586039147472359,3.77612405037362,3.1930603431824855,2.1577440553751224,3.837200857473608,3.2145338074616245,2.247201548011534,2.8563751153971335,4.098757015155862,3.8686336667919012,2.8190882033891302,3.3528181219158637,3.025394955369004,2.9613620827546123
3.8495462689387323,3.340382988763991,2.904936204266778,3.949815249073425,2.600395439306356,3.344901443519418,2.6762300378480686,3.0104321039515005,3.276736909790314,2.7550349305935997,3.425706809744795,3.207137389319229,3.191310283898797,4.012287208307155,3.488500113434711,3.1473388467216843,3.794638651500294,3.1782228469882834,3.9795908090381578
3.931205099332427,3.7865859755339506,3.8412364616380392,3.3016302679301663,3.9079465347402706,3.5745023089133823,3.8805641385712297,3.1748128553753756,2.9031137050748845,3.847282054009117,2.8759704714942265,2.430936209205345,3.2057561954028757,3.761042438832308,3.2679106236211686,2.4597849978851305,3.195125946212447,3.733259315726694,3.658905094610175
3.466516923772125,2.407991998440074,2.5124284858511587,2.679749655446211,2.893087428029086,2.321142191104458,2.336164981452592,1.2120780630377008,1.6934460213891593,3.7637651805818555,1.4747826914199578,1.5974271602957857,1.8138984342432574,3.6581868822212775,1.8277998668938396,1.7452944645414794,2.1025085745055714,1.1675886411589163,2.478436986393075
3.896775086779445,3.578141128384041,3.1362773991210324,2.2634375678802474,2.945245819208555,2.7387903862559875,2.895893155477168,3.6812189079661346,2.220812473345246,3.730344612896258,4.068015747069221,2.075103445445165,2.8522684729201133,3.8499131111992195,3.376413843082787,2.3432633152471465,2.5556682949164733,3.0144220405604485,3.0918020157696735
3.6649604734187315,3.6798618701707593,3.648849763614019,3.8117604089932082,3.112481979010229,2.7658236356814507,3.7939760764350585,3.262747402950919,2.37740763954132,3.8078512029496774,3.3675546249358863,2.77798626554959,2.6041990352368805,4.023178145574777,3.1158402425458096,3.16653742671758,3.602160321140315,2.9033771015182075,3.952434073731276
3.9928377273192006,3.882252473497656,3.6659222286871422,2.9152305080352288,3.8674942393118465,3.504145897148463,3.6009374894274178,2.7985204071300105,3.1262997217995268,3.577807224379793,3.315801155649625,3.2864194989910698,3.382423530809389,4.053124362641794,3.849681443160174,3.493796649142585,3.6031838826770595,2.865972410109738,3.6174065626242706
3.9209428932955355,3.560356192863527,3.7504158103978433,4.0186738622522755,2.8853910653534167,3.697985738406483,3.1120708682594946,4.034643985778013,3.7304709888161205,3.540832282102773,3.7584607943475947,3.8941698935382694,3.022917329823165,4.098366950986733,3.5076110074091353,3.290304915690347,3.943326443463902,2.769287367060428,4.087388497032386
2.6729021054199564,2.298012421417556,2.4423394540327013,2.448591264991146,2.6393055113635286,2.555062960402677,2.4963547991699016,2.796019633381997,2.22171813513895,3.4052891741687192,2.5937559126911736,2.1730167882089413,2.564580851636456,2.8173022758561053,2.7035898606902173,2.381371636085876,2.449329313807308,2.664272910674738,2.851936149368545
2.7471440930514737,1.487140744060259,1.7037382726985857,2.7848976748517957,2.194548372720317,2.4447451251056513,2.1062505058334122,3.595581678084994,3.316450305105555,3.3509057308569576,3.776805973098939,3.0687090555685694,3.4561007530422985,3.3630699068543883,3.659684300674624,3.1080305816179123,3.255231349981571,2.921143918523244,3.4562950669249197
3.3680685675793227,2.6693218279969484,2.4138808476575284,3.287865779384669,2.874046137032161,2.7665198644680062,2.833626054975173,3.1959654555081567,2.9140102918155035,3.6594292118828746,3.6481370349410467,3.0312014290985565,3.1224986953002904,3.775387064492559,3.207251148760148,3.235381659409192,3.3985435477605166,3.368623560072364,3.6066736118381812
2.4826417905806997,1.990610766984091,2.3542841783430997,2.5928663436391624,3.1167839316121606,2.6873712721881318,2.6877526516987014,3.479226178735327,2.9788348554843678,3.219961942345559,3.619811017774397,3.0065249565141148,3.118702280778579,4.029882830051415,3.4904000312442163,3.2094105185880113,3.2939441119030093,2.952676300657397,3.1209923558950163
2.640089157574062,1.7771762683640173,2.2980940334910573,2.0050559972972946,2.779733739469734,2.7976373477359795,2.853108634938995,2.8043133679648222,3.125489976255923,3.040394630324668,3.477105458037427,2.2393655248599234,2.8338021762400922,3.4960637304638333,2.575434689487327,3.126456759326312,2.9984712992553018,2.575640053747802,3.16415485110739
3.5173737487191765,3.708710781326858,3.436394089043675,2.5787144370029034,3.535420716768126,3.387520446620442,2.740270937967993,3.9929527710909007,3.8854378991385747,3.4168055186639537,4.085712956588258,3.5742636452085166,4.032660129015607,3.776803641768863,3.9867662599790057,3.98121476885683,3.875931910254138,2.1020185463246555,3.6300918512815508
4.296351672170061,3.975440284854574,3.852329768290127,3.625724702490516,3.1190454399597325,3.71295536205374,3.7226597762185754,3.2530782257711626,3.007616270435796,4.01555333391604,3.5264217894537215,3.130449172271405,3.3899231998450285,3.501992185585351,3.531784074121385,3.0888882763506005,3.288617079156635,3.9262322081437424,4.169148887733714
3.255708568657869,2.5304222626198123,2.5398871975942323,3.1663135139244893,3.1046021939818975,2.9593616621862484,3.260352623638761,3.088852371429599,2.621472164872999,3.6375464131364534,3.530266006487848,2.4417751828646237,2.9672252477343135,3.586784947214465,3.1357772982535197,2.90439242687649,3.1555310641444554,3.3777091658681275,3.4026460452571072
3.562326824155916,2.9193146936528227,2.797756730770471,1.5676663229535097,3.2903021942983455,3.292688769738191,3.3319459027979166,1.8700433258755151,3.038759355636343,3.8399489921305836,3.158736486250538,2.736637090434237,3.2695191184871724,3.672887464920384,3.4032153320021648,3.4398857788058157,3.765125243249284,1.6714822195209016,3.8023062468195485
3.769993766018293,2.632223080135592,2.3020483478384373,2.2435852321711,2.4799554610910257,2.550942999389081,2.5786434523615966,3.5232834395022685,2.179079297230374,3.860935837976583,3.1065001831898513,2.831368662591643,2.812374439968005,3.721948065855771,3.0105071490369335,2.15692576886056,3.0979209722775303,3.030859191873893,3.570161543997998
3.1095602348485856,2.45447201814046,2.447207385363736,3.2308470921289247,2.7889041864748023,3.0319429506488773,3.5479381517698565,2.818045423614124,2.3478445061097775,3.7253432425175053,3.9045369998784545,2.2255308098491553,3.2745794159777284,3.6261874546969435,3.3946576816246483,3.081093104534048,3.4366778700079084,3.649153865612341,3.5960040885387556
2.9907391215301278,2.1897702883459833,2.031765060328502,2.7213416803945436,2.7399870529484107,3.1573595870754643,2.569494611238764,3.7747011600430174,3.456674997301964,3.786866643353089,3.944395157676458,3.5467433263097323,3.7538130641259673,3.777004662502378,3.8900902541228053,3.8073358020968424,3.5193509421391553,3.3459453613502395,3.3956808786339168
3.906134904167271,3.547057302446954,3.733167994307329,4.059429500094999,3.733299778273782,3.960114691302655,3.295424575361976,2.9875055256135434,2.9577157982329263,3.927850127020909,3.2597284182601225,2.8153640056230382,3.019306941423828,3.9704275243939002,3.0899834577031244,3.75291703188962,3.7745494014314827,3.877259006841468,4.003349313782981
3.612370580453131,2.7866434926692514,3.116275256436726,4.14918192412971,2.8699370362635,3.1976915761982347,2.9534556251447794,3.9044447196976213,3.917777351744551,3.9739701468660855,3.773792383953583,3.759270024864461,3.4399247797633303,3.8217064507133798,3.8556514371285484,2.8788753445459556,3.9425010172457666,3.8918683954249023,4.065860100007084
3.442351540254605,2.4176515926497326,2.393925926599678,3.744140722558192,3.2558257837644557,2.915345795624134,3.09111827628269,2.9354361326314624,2.7956235925419692,3.713206267984076,3.283491469978903,2.1545878155322087,3.181604882459328,3.565045498298644,3.369014511870679,2.568330262580604,2.7959092414665982,3.1526397514173166,3.697483120669043
2.9967436410841324,3.8119470846450194,3.5433420179151915,3.7586603029362737,3.6122890557406726,3.731113906803066,3.6049736390242555,3.839129687530269,2.439348847350528,3.833914192608209,3.525026068789342,2.6155051750269407,3.229682839032703,4.0867073303197445,3.386420665099574,3.0363511079960985,3.761895183665898,3.6043546053755815,3.7384495167880902
2.1858191890593863,1.9540079297178874,2.144877822429251,1.5970989166153282,3.01004827356215,2.672931139621207,2.192987054062785,3.5164237620280945,2.9706882099890444,3.0830908977878155,3.861590165324976,3.163152863967742,3.483468070570551,3.768845341830556,3.604599928549135,3.589677408667196,3.24961776056178,2.510771093425286,2.722762349629553
2.033012100662298,2.3924485169760175,2.512521896152026,1.7005094543178139,2.9728513863515955,2.459188382115588,3.0109940106491417,2.97469785867028,2.3265041480291444,3.2438388789974253,3.3507101287322176,1.853751410251667,2.908858816640525,3.3521314057340845,3.022243377049031,2.9045080344737215,3.231252518952783,3.2619334493110816,3.304379583348975
3.5785018645986653,3.488833167179518,3.5076437774306664,3.1417921770630333,3.9591562210997093,3.9461683097479177,3.4465209036804483,2.663941831086726,3.993231848423694,3.8793901151548287,3.5182456638955215,3.7159636165582666,3.91950084276317,4.258906247834847,3.9708179997077275,4.011608287477487,3.73644260037585,2.0217991406522975,3.953483876554083
3.491233661277217,3.1856741946159386,3.225323634982359,3.478881910072424,2.6693083463628686,3.048691989720993,2.8907063919750007,3.714446811827914,2.84543297624932,3.5220334261798536,3.760054119209351,2.369636885845879,3.2861201040597265,3.2182026709909826,3.4459668237068035,2.9878835206804086,3.0926095443458443,3.3316539233936897,3.645895643568213
3.323283382930081,2.75118948386498,3.2184312865706834,3.284477801233205,2.8857193573472038,3.8577815694922175,3.6589170151150876,4.078053376920308,2.844731725558658,3.9395912672245568,4.202533109315131,2.598020605334518,3.627255787162611,4.0563090063439855,3.9888176065197336,3.597944098829351,3.3777372286628218,2.4228898902544063,3.9722773996912406
3.090593323215457,2.0351590158759665,1.3962140700964099,1.6836914061905073,2.1418546630086186,2.071216753363163,1.4541605827175452,3.6481298211231215,3.4384247698150814,2.507141772222544,3.7108663652179774,3.3719230462698633,3.371447126098167,2.9686730974729474,3.8827865593581867,3.6481908455273135,2.508562656308247,2.0210542522665778,2.4373870120789625
3.6052766957920226,2.6463007256774698,2.7181907962917315,2.6812132179241686,3.754433872946078,3.603712147226105,3.4168018060502536,3.6530078838964974,2.9782766769352476,3.8297231558097677,3.769726239609517,2.6845718466152464,3.474076233071715,3.6716341643912904,3.796127160418449,2.995685322621263,3.6091315702019062,3.53906237197284,3.6318382850565087
2.7861667124640563,3.7750311921821904,3.7002225159093163,3.650891534933334,3.7514302788873866,3.7393046564749515,3.6679265194555564,3.1784290431777396,3.208875528285239,3.8933578912412834,3.9224407971454727,3.34729093630129,2.9466196638889453,4.153975556002906,3.096706204179017,3.4037054861141995,3.382092171586837,3.9173584276723306,3.9382312596070435
3.076800058316889,4.025726568856521,3.831189710654403,4.050868563058915,3.183258882328862,3.403172364059367,2.7016501239791664,3.9000483353572655,3.7758160372900806,3.857741321004384,3.6643776871403944,3.599863120407603,3.3810512705416755,3.9209385048128818,3.7228533781226725,3.4060687668378598,3.6120000145263944,3.4500103842302767,3.977802416244065
3.306799016669675,3.2013513690557533,3.5975899998666323,3.9445632375725914,3.110152750607031,3.43945989149243,3.697461370702722,2.4912589604052977,2.50090328413982,3.6662457874062047,2.6655658961855653,2.306435611033733,3.1959593924724086,3.108202583664729,3.3105233656976774,2.8171047761267567,2.9137500871165107,3.2902041174592864,3.847428924859615
3.3294310046906217,2.826276652663903,2.8124879388917776,3.028025609588694,1.849147952258736,2.8829077373600214,2.216766236394813,2.7548336357653445,2.14265877091398,3.0662768919780645,3.0450366390658825,2.040176348138374,2.893848126962914,2.744910799869231,3.172092784688404,2.545171687780181,2.479261273054677,2.9725374749285645,3.319694495737113
2.695201552580051,2.1473733352176225,2.4078754460145206,3.1392384463304612,2.580652049080022,3.1487955834930204,2.844704803464149,3.9670033641445857,3.103891302073398,3.928410751804174,4.106885026075882,2.918253209010658,3.5755285781408235,4.144391219814938,3.923510610689342,3.5919071087396985,3.6407506731963553,3.477853955376955,3.762666308523978
2.1648828384513843,1.8219111477094947,2.3031969263583028,2.4107383609070747,3.4845207903582063,3.6441472372565857,2.654726042183616,3.447719398259763,3.043492217533581,3.2405549135982366,4.285226975047018,3.0821957859253795,3.3308046243295295,4.058021078483644,4.098722542575907,3.649094690646339,3.2758583299677815,2.9117812676286405,2.9790300307281163
4.079409001294743,3.726481753895712,3.683502023136959,3.913321725123592,3.549187876848602,3.8136732044264017,3.454912534483318,3.6939791314596193,3.8369194780290297,4.043000734391338,4.148087806521574,3.6344588075775395,3.369741755289281,4.073170563171014,3.8577743253048293,3.8945745359094093,3.7220130230341852,4.039866108759038,3.9799755281439815
3.659675267151838,3.1725510929649383,3.0588204317685044,4.0450076494087,3.4699957810934468,3.5729149046767272,3.0823113665444275,3.8303949549025145,3.6965097037388626,3.8791817883725304,4.024014655040862,3.2382953109396655,3.3468790857580712,4.127626038255776,3.7378958795532293,3.1492355950975472,3.5141035934669893,3.9786314387239705,4.020210442385486
3.9569889589585725,3.8355159598328585,3.7458863615821585,3.650452944404724,3.531940297509664,3.676562853889376,3.0289728001492944,3.7499319079638402,3.991046304506998,3.929170760909986,4.086972245964935,3.4773949303423395,3.5960369117877016,4.157924835454128,3.8770810170155863,3.3074332271328886,3.6388719114810653,3.75280140020009,3.804882994963003
3.111454199168486,3.1606203893902554,2.942752282840319,3.2393046537278125,3.099680590202196,3.1560319942917356,2.898162482001758,3.070532441986311,2.815459170234523,3.509336771061094,3.95609229250142,2.493391472198566,3.1917557582226705,3.4606197271676824,3.14505127452413,3.1133108258063817,3.1650554894506135,3.2020011335588916,3.433647987239848
2.8946187441420403,1.9068246418686887,2.183649868099594,2.510914844354487,3.0188450593957787,2.695373370675722,2.822143447346535,3.685671664125861,3.485195564861827,4.047936640832078,4.174737918333534,2.9307246848419606,3.9559583440090393,4.230466708444188,4.095973595737243,3.9113217535437963,3.8744839167204788,3.5353871139657183,3.7081392321110602
2.0591777505271667,1.653623807949489,1.6038991163011573,1.5899629400409572,2.009408933051936,1.9280117275523174,1.6722454161472688,2.2736766191930764,2.022371598400838,2.63571650579438,2.6754827390785527,1.8540316883772174,2.829256915795605,2.3433777076049522,3.2155333711070537,3.642738298397029,3.601383035138074,1.845220676868916,2.5795565306214296
2.9196736964294883,1.8916187537190032,2.2013065284260445,2.804629746546995,2.3553117512743653,2.7494392936621423,2.486113918963729,3.8775008156298556,3.680144222317922,3.913314764348136,4.048684999512876,3.6051933451983893,3.774880091196198,3.874097938436097,3.8768675381084075,3.483161344756148,3.585235580837834,2.9176946161443316,3.875652809169067
2.5895295798527806,1.8826066174429212,1.6767364818159278,3.9009817829190476,2.1585216062005363,2.4093872917031414,2.3660628889071806,3.3112411140704654,3.6596100375071505,1.9567510205101872,4.080880376404249,3.730878328953363,3.990435384547012,3.8810179119225743,3.9784682260159756,3.924982269869438,3.935561946003704,3.638451602354788,4.021609112324049
3.772490228651312,3.4235706397817225,3.3848341284943757,3.629957790833721,3.8455411753580493,3.990060708728564,4.033911990084145,3.678631294868469,3.08465216700286,1.2726863880636283,3.6396046616196958,2.3662276079554223,3.5087412743806334,3.7942454357058044,3.542463677683237,3.3907895813534394,3.4422789537516536,3.6040890170954216,3.7892172899578584
4.105477502959586,3.636645227424995,3.8036661293569476,4.113432694064297,3.635230454750853,3.9356572172933455,3.9950276986928794,3.637884818745061,3.2420947604417987,1.7823257209729957,3.737829263231766,2.9235902823682447,3.752435342982889,4.060475347548758,3.654611732773716,3.467718391347095,3.595623285007526,4.057952716594054,3.9513874528313586
3.9442943769576813,3.563844248054349,3.0947366907080607,3.94628430865811,3.9288339051083825,3.745407541963886,3.6438988162348225,3.5854217173817733,2.8039311216666287,1.4844511254931636,3.8668043339705194,2.6170350408166136,3.3665688846478257,3.736016184492371,3.499571996931922,3.404314181287893,3.7237803900491766,3.8549820771447747,3.9932951935294936
4.095264994125933,3.6485764958008478,3.6766760728722914,4.092735990608805,3.751675898538908,3.750546784467175,3.505530621051548,3.1325276236632327,2.778245581308321,1.3324416836118103,3.793391798269376,2.9031259494370847,3.569960404102867,3.8312498796168644,3.825751998211281,3.748303826461082,3.8144035928795197,4.019697279294693,3.9602483973902496
3.092625519080508,3.3353742053635798,3.4734949726497693,2.6771464245214998,3.7390128138030025,3.7157788905810056,3.5318340655471205,3.7117376958826114,2.988508879571529,1.4593317491527038,4.030475757346924,3.1266608884236238,3.115426846648121,4.212820486791256,3.5251311647883448,3.1240358155896035,3.7308372199268445,3.4322565301116277,3.3202971195538966
2.8746104522090414,1.7876858101641,1.6490433157134776,2.650218919977806,3.6386493727007507,3.3443770713766714,2.4702665224396845,3.680969500593064,3.104157763552728,2.8974014319654287,3.9671062117914926,3.128469249441191,3.7708969075137584,4.047135005008087,3.854909987862153,3.822644857601411,3.677665167374623,3.7065869385629715,3.4651009822206773
2.6985871274301814,2.553021737561533,2.288522668399257,2.4621874045651673,2.6006820404513022,2.4479640110847303,2.333567919617792,2.6358693681779153,2.36501361488955,2.3876576339184745,2.865307425609028,2.439584605516722,2.5634563300499456,2.7447856892974882,2.6802830206176416,3.0411789076322915,3.032066534383288,2.3637327788469142,2.5083711873397894
2.320513803059259,1.482954054593208,1.7258198148358612,2.9068219864777833,1.848418961102952,1.869333524162834,2.0097500778181145,3.666719770048275,2.2157565042032257,1.9308341400155682,3.811874257365123,2.3472237406117094,3.9934016586111367,3.3025645144332434,3.793168444389514,3.902138289272262,3.0392039865652403,2.5446221229597707,3.441838767844923
4.036831385159525,3.328187265947385,2.63210010801928,3.9413615049289477,3.029394357576853,2.8270297088034977,3.129376096541331,3.8124906092437993,3.9087967513387976,1.7750869935119975,3.8685835559824575,3.240374244573354,3.675352643738403,4.128822983752701,3.3183147780916586,3.2167723694886483,3.8030356698488323,3.006748227546097,4.075990782256767
3.1789060479300484,2.7503188088455945,2.8635188981127384,3.5760056788096284,3.5442500250708555,3.8690340150239986,2.6795836203882697,4.040501823087426,3.8100295313679604,1.5903364562896527,3.917875436763742,3.3895468879460733,3.896057543881498,4.000576108321476,1.5745862092033278,3.8209832613257135,3.7864828176559273,3.62681782706069,3.9212622195102362
4.068124961904844,3.4183342425880543,3.5002279087638253,3.0785999563844877,3.8562777305402958,3.997299134942985,3.9402428311519055,3.5189144484253125,3.2164025062540724,1.6258451179976334,4.046489598453088,3.1961222440214074,3.4083297798537284,4.142627806279524,2.7123737342842276,3.4216183145108827,3.4939668091750007,3.9676113510959277,3.883219911556238
3.1508033245936886,3.669434486619654,3.0984669239293177,2.9066178328756096,3.8838385981569834,2.8726582266130083,3.4696878294214013,3.6236454831408933,2.3897175419152674,1.6577866246679187,4.157278206514985,2.4855655828034977,3.2275637147779506,3.994983569901521,2.862204963653336,3.4852425587167866,3.27239460852964,3.5613941772347153,3.7237782762239995
3.896269982601836,3.5145576728662102,2.568832421790384,3.5900459481210056,3.7094792562708423,3.821345553795605,3.6801982066001924,3.0696776608247056,2.6008909637614748,1.8001326119667116,3.9755383114988185,2.2629821612802883,3.6850513092251775,4.1095891951575965,2.617765306307127,3.810771947032832,3.6278841546845486,3.774963376666727,3.8129551537432165
3.948542015448497,3.6464500082633506,3.738882273495127,3.991774488080085,3.4484437378091997,3.798849410651481,3.134624124813005,3.71169844002656,3.8080218462532134,2.2850597773157286,3.9985787022365815,3.5098019866881254,3.4654070206902023,4.067895216261542,3.77837068449798,3.6533799474354747,3.3721779536984835,3.379895436026882,3.72909700091761
3.2792489135184275,2.763896434230885,2.9487373289537633,2.878257722707283,3.2621983114934126,3.174580175389956,3.107850476800293,3.088300203667254,3.205681052336033,2.4285197168845576,3.768206906256296,3.24429284289291,3.143737127245331,3.8937801703269894,3.8389727309880226,3.0576570069053974,3.196490098498023,3.349977622311584,3.3396855844164675
2.7629407621104476,1.5551640746431217,1.331328242580508,2.0579433233796225,2.169607944132464,1.7435557561732606,1.9303634259381073,3.1771122369260203,3.139067271312783,2.977823622100418,3.8142025028873974,3.0881647488261685,3.0977103894897406,3.6128839078951027,2.9385290070896097,3.516631739423693,3.382217384346461,2.4318318527972567,2.9063169297051306
2.808268624776333,1.8287685381167864,2.5012049737140787,3.011533980443326,2.3402735018252874,2.411011603608786,3.058874843150956,3.7619157566713084,3.7493050733588493,2.6583205888657453,3.626884954345665,3.78371333909383,3.5198619731323624,3.38476606810814,3.1861554908257106,3.8896720115250587,3.377010591505932,3.5077705825234884,3.6491509493289898
3.671655469652295,3.092751654392151,3.0469698577600832,3.451493015898449,2.865246305986193,3.277818416782621,3.0581130933440397,3.8119979377462263,3.51148889223625,2.6138509866823902,3.967564631540291,3.431363571046247,3.495285767817667,3.856209841120236,3.7640089989530807,3.5166111642578506,3.3651084615942417,3.5124434448072077,3.729316371146416
3.6168062410242654,3.406223953451597,3.4507817017587703,3.381538611032362,3.666092797591971,3.552148104494358,3.3392735300186116,3.6223677374312735,3.2151578213277996,2.840939906732723,3.6853439942680413,2.7961477581892153,3.7458775328421785,4.099413382536046,3.7879426909843477,3.4263122020914962,3.6722984768010636,3.577732087575097,3.8706938439148106
3.0842440505592603,1.5817731973824685,1.7933703851287468,2.2440553018470784,2.30989984775986,2.504876485891023,2.0345930349411248,3.7697117575069883,3.654751736832412,3.899023087999643,3.281922009292478,3.7082954883218333,3.561017796169534,3.5635294213143682,3.230160449112054,3.1893721578645517,3.373265561243491,2.599645942337572,3.1794349782821443
3.9741585153644334,3.381454523979376,3.4926012467621264,3.900229218416291,3.559676384525492,3.90005141957719,3.470340067008963,3.025629448862451,3.7066375112327905,3.72993763016707,4.181510664439093,3.299781421863554,3.9163215904846598,3.956771456512179,4.216078489279472,3.8496748849633975,3.9675174146758176,2.6699263781984786,3.8588475111475695
3.860299578696055,3.0900963147047973,3.5693787807710082,3.7548615140118624,3.4163114156577974,3.7048988120721633,3.5142184497691096,3.4481959317808313,3.300717066392788,3.1159437567977153,3.8331786545634676,2.7151666452619327,3.55175679399214,4.080957277648183,3.8542411223997135,3.311587484274764,3.620782875712369,3.8331962102756436,3.777849591393143
3.2663245185044048,2.8748219037319673,2.30293465931305,2.7431656963142,3.0814214588619935,3.2558736736265437,3.252426035072348,3.78919946508591,2.559758824269742,3.1750010622372686,3.8059658600708617,2.2984664959655614,3.0502741916208334,3.9356345198889677,3.669568732144889,3.417616437954755,3.1218464091065505,3.4782965392710334,3.1253190566849356
2.5062417761611915,2.42744485865148,2.51835790216746,2.6509774079200814,3.469845210564472,3.5870880990233176,2.9991278880804284,3.7353711022553657,3.140319690401157,3.8908948978469557,4.073899618924117,3.2882156735180073,3.7053516507858384,4.081278421312562,4.038885705027775,3.866666807754454,3.923202721463831,2.8665691256570653,3.2825724958499456
3.5950696589526157,2.9743208968918684,3.055653622046024,3.2999220505975995,2.9590613601229263,3.119767830584709,3.3705126438927056,3.000984059908684,2.5135713003363236,3.458922593873105,3.7594412816106337,2.3897944152139914,3.6602380245262336,3.789314438802974,3.959142943461115,3.578126797432667,3.737015359413876,3.621458927731159,3.8133843306144075
2.588539988801186,2.6804768666240393,3.4830375768640036,2.8291643811351994,3.013250461663677,3.3265742417723523,3.133877954808211,3.623425960589104,3.3451435925560573,3.6110021172226454,3.685858417169545,3.23364155290774,3.2300283048281426,3.7007981717467153,3.7888549585286553,3.8276363083585845,3.755938158668311,3.3778265273609303,3.7555969112157785
2.8336668333285613,1.8460219493388692,2.3356275605065546,3.4267737023147857,2.218473061115723,2.2020946570107225,3.076765903310806,3.9501943508633084,3.042638359158383,3.912362644088958,3.8945258926042055,3.6061570547498265,3.7831968323519463,4.006080218716955,3.9663305193320153,3.9467760685780373,3.660441466295972,3.4843231551476546,3.8515738724722786
3.613286133328409,3.1721259101531594,3.3536714972795343,3.6203222127130266,3.490972305364111,3.89515168512449,2.868817866660342,3.881937473677493,3.3959120270535266,3.926175824957432,3.989954150814676,3.5842426057947225,3.3869391135755844,4.134573686503598,3.7985165343236673,3.446986150180697,3.722462772373661,3.72225941676932,3.8294351281972405
2.4195932349732203,2.100388521107649,2.8414124943584214,2.467354255367533,2.560324503976109,2.7505831392220177,3.138550402650767,3.4684375481954053,3.3089944186625297,3.79352109030366,3.997870577733906,3.0575492812126503,3.752604047249706,3.373518846802927,3.770824017858524,3.785929962432091,3.735855898685627,3.459522023700755,3.5087800505564726
2.1848626089418453,2.0960624270572628,2.3330657173213365,1.978367420792819,2.7125144732923014,2.8421842856953097,2.5820033836085665,3.372315234804647,3.05771788936911,3.193487823875999,3.4620363908182554,1.9674913260856095,2.8744922239481334,3.3345807845458113,2.999163446315625,3.425187838335904,3.305217954205482,3.5109045883799026,3.4168421909320226
3.845471021498659,3.6600646697987367,3.9059450570776004,4.2303989572453675,3.8128866130141854,3.7424109215308157,3.8160885887885625,3.5675880103479702,3.551026837022691,4.130626590441034,3.597730919417709,3.2314340674061097,4.159069626298821,4.197745101880047,4.162326478450607,4.004600792067012,4.139298690705438,2.8821467163048324,4.019581179558927
3.5699703909802287,3.8212998740056556,3.7046563042636422,3.883210961376318,3.8439478751802842,4.108432348190259,3.836278890797168,3.920279525113296,3.5794566861888724,3.548542556067926,4.089557720432994,2.7808350651065057,3.5240020573434085,4.023619347707141,3.489038094074404,3.2080238504110214,3.608925800249948,3.7802103851429845,4.049677972513711
2.7001902487012304,2.6543283861165405,2.4821345332838933,2.533591674912649,2.42102677923483,2.684578254200354,2.8040949940138584,2.007375190887722,2.7627931275822477,3.052570805462596,2.9657150745204928,2.0146074841156603,2.8513108460796146,2.5783428752931474,2.583642431459864,2.6487181269893565,2.6201884009448904,2.738670728622152,2.8370621531490223
2.192491922743094,2.811628278673662,2.3860755689682245,1.8755124463675183,1.865093466785671,2.103148705153397,2.191703488589414,2.2347359394246573,2.0119711853928517,3.226081579765676,2.6312779731776637,1.7801669237757494,2.4068215380807927,2.0703874598282637,2.1503226958859494,2.99657262557359,3.223347071327103,2.193174260382626,2.1787230189784417
3.836798875143645,3.6692738387919572,3.2374592159850746,3.735733260388426,3.5437043967028976,3.539954371428816,3.607021924836776,3.473388440570923,3.566654350390489,3.56754579562172,3.694225739444143,2.3135309306943515,3.6671756282433554,3.514140678248517,3.5670724140238512,3.491040996104966,3.7282800107407885,3.20511554923656,3.6023306223774436
3.78374298988601,3.686860552912293,3.54719956122468,2.920232404972475,3.6436180723326506,3.5922611131327162,3.5514263139900697,3.7416045653347925,3.4744824457686687,3.6057476763009237,3.5873250029845307,3.5349778255568887,3.4140674801536135,4.0324072981811465,3.9671439875056946,3.6653659844452022,3.415178423142876,3.67088784326247,3.555904876679427
