F7,Fp1,Fp2,F8,F3,Fz,F4,C3,Cz,P8,P7,Pz,P4,T3,P3,O1,O2,C4,T4
2.4930904084248144,2.5739221330368363,3.145364127507612,2.2731532718467475,3.641683778577634,2.6556315951201124,2.74989628691098,3.2835740823080295,2.97397514810678,3.686482686607256,2.8988184461830806,1.9738168961471805,3.2026561132620195,3.5479940469932427,3.6139158678322914,2.93208178442559,3.7332594832480357,3.0205069806993032,3.1737251224349547
1.808146529538974,2.7464586094683927,2.5722335250566326,2.0342492454135646,3.319788890023761,2.8878187943566718,2.8450245928836675,2.686538671611877,3.277545896595832,3.42935125130059,3.5086819661420052,2.796790550131643,3.2433721203325034,3.684461627959333,3.672809516724523,3.5334058747609935,3.4165879845303966,3.079952297994797,3.3900715968946322
1.6893894519841022,3.467090115219886,2.8534701664440796,2.1408730693401314,3.0557003349203,3.0485278589067035,2.706577436414131,3.3829698518730518,3.7699102519480396,3.983347797684567,4.059155535624635,1.8567602529997833,2.430007367389201,2.9259348753403773,3.8437899506858115,4.104384045849271,3.333135786425923,3.266241631567433,3.7894441523803293
1.1182380526928506,2.274285264994641,1.652261553042687,2.6822700212595447,2.615159187124112,2.787462418518234,3.1846990829077813,2.3940755608689153,3.007336316682437,3.8452035028403118,2.153807377775923,2.2826609993491673,2.935242859418157,3.649879609052264,3.900462470182185,3.6909008682148223,3.656804560666355,3.5391176764100445,3.591356856098992
2.1149735871748976,3.3702775862040704,3.1288278515125634,2.600630395812632,3.844432922447658,3.5963777604402454,3.1079578218737076,3.6861586247160436,3.8281812172010006,3.794168284822393,3.860034198220442,2.521819469545317,2.65017255860143,2.4479821030437168,4.362789704970717,3.8821910948501688,3.686210919184149,4.025725700189897,3.112365325659488
1.5350892063302382,3.542729081355407,2.441294658303005,1.6050274232768016,2.6469308159262352,3.652661657514781,3.5389423525702037,3.2397303285820596,4.018097815274064,4.007687886987689,3.9026641959586126,2.5058808730735644,2.1268075986915584,3.9407875859408175,4.283580372470406,3.9230266601322716,3.8819364973830255,3.384678227061052,3.62278870443164
2.1927832187365333,3.276955484166575,3.356717923433643,1.8061032547301763,3.391383695580879,3.234175911427274,2.7162476573316083,3.4407095379003185,3.8401234703697527,3.374705805863741,3.228591189872266,2.3381836921644643,1.8935279249425956,2.9791397699821807,3.095981945974174,3.6554804905942055,3.496886551194787,2.4091281113013965,2.5101419522692514
1.7184913418795889,3.1292629575344564,2.1815539441889866,2.157778150157667,1.7803931361060201,3.612140271924254,3.7567723573421112,3.929304083432778,3.2647907531216873,3.7679083943306715,3.657948743691074,2.6997393371635923,2.3309829109074784,3.7931704452202895,3.859479506397777,3.557295946578502,3.581869795669932,3.4637151450557857,3.475686080255113
1.2989079998360544,2.6927216274973724,2.033754476085003,2.806851925393368,1.8853812818575002,3.4032269208738444,3.7938204442999703,3.1519218981682497,3.6592890195011325,3.9539070238638874,3.5377476015895355,2.598360984644161,2.688938524003358,3.8725915402656494,4.182405130691612,3.6429487329550763,3.405427405413636,3.782871312344624,3.4338274942385683
1.2984514511118654,1.413859082348107,1.4209243872266646,1.4858706231437664,1.3892364639967498,3.3911775468132106,2.912866327974238,2.9393925672809544,3.4919776822583772,3.4854864034663264,2.6522054490385187,1.9414000658072847,1.2136348426832229,3.627750333875823,3.636686359229162,3.8572727298818457,3.656842024672733,3.542256305755068,3.420208740953093
1.3939991865344812,2.7382790520424187,2.1749224039703625,2.0554705612331614,3.2972980009839965,3.2319710201681047,3.1650872993970616,3.003028760912066,2.8423485135653475,3.625581497598349,3.349171534170291,2.2828669456313997,3.3146245049314915,3.261230503981362,3.556415746468431,3.141423204192907,3.0205166406505235,3.1079702854513496,2.8150817936031522
1.949812660419113,2.8637894451749766,2.053828728050315,3.073053724035961,2.567320323640964,3.7309311584144638,3.3059036910428214,3.338547769925374,2.8723139396001796,3.9871440652609165,3.784028820613065,3.2165284787981174,2.5064171653070426,3.7314566469854054,3.983713832989704,3.774885783032103,3.5010716268028785,3.84921379322791,3.6063698121608856
1.4531403845330175,2.7063385831340696,2.413774214533757,2.3629502085279697,2.368146831689873,2.525876742095379,2.605478270052776,2.7907820667483736,3.0314335335519496,3.451370563013557,3.2031631173694444,2.3533576509405,2.3215955277192077,3.486506079114176,3.3736083619430186,3.200350722866928,3.1374225382061622,3.0296817025415095,3.157705708625571
2.2179538393443194,1.3648838359809687,1.6685533931486896,1.9334414180796533,1.8509593457237739,1.9083226291769173,1.7728455039093427,2.393723927756907,2.8413689784863396,2.8135511720220254,3.1136794900293503,2.445700086258998,3.1967480759945603,2.912047971439211,2.6116189854171488,3.5157526559415553,2.9788706372585327,2.381356278727454,2.7342608419331627
1.4966348086336492,2.0787959535659803,2.303442519768984,2.1418467882193646,2.9321926631770387,2.478944560780578,2.4738288048856187,2.7377714521689405,3.3610131253452074,3.542002096465759,3.2114712768417677,2.9283965209699447,3.6958176263438087,3.3696410012005575,3.44170214816142,3.62364075737332,3.5216351002523223,3.1097137842774747,3.116009986965173
1.918556094658132,3.127480429745375,3.37916008647739,1.9386154073190798,3.284504852631409,3.299665512818303,3.111737102621686,3.831590636310354,3.6031532780161895,3.210628809574089,3.6188418057413854,2.4846880196499335,3.8625207956268204,3.3788913849276296,3.8046578853973467,3.459223887130519,3.3780185146535486,3.3585904370120914,3.3073358813253795
1.6168663868755886,2.353537086588942,3.5235280281752024,1.7881996798558786,2.3378127430707556,2.282771563952897,2.411300331112489,2.8593090915792208,3.6833656036154463,3.0352180600210596,3.7186604604106526,2.242999835197876,3.438574181479844,3.1667193634448565,3.5762261215352957,3.5256538878605146,3.3290037783556876,2.565675033118218,3.268647556023193
2.852262931319806,1.5951399869091765,1.3104592731490456,2.6662630067137907,1.5546762779552195,2.718683946710249,2.812174614800955,1.6582135924225483,3.0683720326089152,3.0789444431086506,4.056557885842217,2.7971047798764013,3.6305461795071614,3.565481654307518,3.9664261273818897,3.5416498065383584,3.41454360333339,3.7490399331102657,3.349164148536375
1.1811601377761578,1.794310221492356,1.5234700662050242,1.109829969637873,1.0076447631682004,1.8540599247327534,3.2487383044876834,1.4082049422177754,2.8472351180225073,2.0444066167181347,2.2153063254595207,1.748640201480321,1.5692313316388886,2.970164180134823,2.1255927035116566,3.1662941094123123,2.5293321397739783,1.6252217728649838,1.5292346760744562
2.092701737522351,1.271857412423826,1.4913030317569727,2.1663230386401073,2.2527079095679485,1.4460122106973947,1.4789010634024495,1.7197592082895659,1.7097768685582198,3.244854795404406,3.3387923046104873,3.350675906595078,2.8006874821239345,2.4560857847508446,2.9922428620754733,2.2304307439741953,2.0924100087607114,2.063148399237466,3.777651904417064
2.189740372937565,2.627094271211584,2.7147223956574007,1.9265352921254908,3.3373816333233735,3.09817140580509,3.309008322117117,3.3726075962441286,3.239491587373874,3.3288346719283526,2.6274679832303023,2.723535760002813,3.760152544896305,3.96100378472297,3.5264720915639582,3.2644486580509846,3.493318584334136,3.6080624794542064,3.6803119380019447
1.799005216657398,3.310507305487144,2.5791925354901797,3.083342918316777,2.6243779275080414,3.5183536860682394,3.2260450665049585,3.1520236572506404,3.5629379515730073,3.925087892060899,2.732952750420126,2.5797249559787407,3.3906897366572064,4.056237510125888,3.7376841354809778,3.8887200107457653,3.7371310041566197,3.281767958586698,3.352909746724891
2.541625208798479,2.9209225814271704,2.3916879042504404,2.7862220745415467,3.0842774600745555,3.3079463067867514,3.747783180718106,2.895004951321851,3.061351363545954,3.701423468993954,3.280565677303267,2.7132204430787277,3.8384959246439934,3.6099081267608524,4.098455112530013,3.863531357909465,3.7755604633553785,3.75181107433184,3.617240032551255
1.5801280671277025,3.1361507347818405,2.820477694742323,2.2513506787999167,2.0920457466844047,2.762407707296778,2.751112057684571,2.562225283548582,3.372847564863385,2.59914470047178,3.4229829884203036,2.4645686720183275,3.255046608374219,3.0358620674826224,3.547793429040806,3.575920679055813,3.5274538636824806,2.6751627223870673,3.2192732156070014
3.240639331769507,3.2460091582242274,1.6744824114430845,2.9878814375406737,2.935802219439344,3.3255342950039135,3.361491238499651,3.0887455021619754,3.0017011081494633,3.3794191591229135,3.8363989373224467,2.7577680744442707,3.3169833905345976,3.5376699323251235,3.7213926646756503,3.423520315149313,3.5059604168413485,3.4456860551786797,3.4636141096280433
1.8975311665052834,2.9453199791057205,1.777042112743408,2.112593652736846,2.7579766611129615,2.9425741860238,3.01898565596877,2.9435319856889692,2.848254694906255,3.072243403236648,2.281724421521615,2.8109844298903988,3.029167154655475,2.7534096843639615,3.2450269245495997,3.296573429496381,3.2417538865692155,2.997342531103534,2.9359648955958204
1.7753029750184735,2.912532860196255,2.878074569818042,2.7934145304915554,3.1344802735796677,3.1848854575961925,3.254048445621693,2.923107744930629,3.139145412091118,3.519974846800857,2.236382734931739,3.057187173283419,3.04825220983435,3.706779360667119,3.417581616607452,3.203187739060556,3.23148452678757,2.9133391382498113,3.5751575661016464
2.711871729239524,2.9153693803657745,1.9334618084348945,2.7730746970395552,2.3622279486696756,3.048596027357239,3.1665659198753353,3.401580549609899,3.0088645904948303,3.8003369026152813,3.976886132554373,2.822613390729342,3.4888542562524125,3.7085447538741754,3.688728323996584,3.828611823708914,3.7095783345174485,3.566287680980069,3.2582150925228834
1.9022055795940287,3.4266160457257877,1.9838334628200267,2.125761433082208,2.7408151355735435,3.1025957499848364,2.6588059908922186,2.9432359719242975,3.497913327211019,3.3416304261209064,3.8528392618297063,3.0015739221735456,2.9353109138775975,2.783415657029874,3.689141329834272,3.0960105836857847,3.2628582026913904,2.7703480884595453,2.7012364545323826
1.472854183288004,2.2700188721614736,1.7532783732164527,1.0076447631682004,2.4579503461314633,2.4863927152896736,3.023723262358728,1.274513231065273,2.0919710045104676,3.7526638997282635,3.3030719037398044,3.5095513413218695,3.4078615602639744,3.225820684932988,2.859839480602757,2.6683183509615622,2.975546911153865,1.275996174731684,1.9227981530423421
1.1102691880509135,2.1983192926995145,1.6294987108018761,2.0402611261013734,1.539774772210767,2.9611808919944633,2.9269446592576345,3.6635367678025244,2.003193069636198,3.749804243615508,1.6190092838692072,3.760390863256454,3.965222911458689,4.018594799809841,3.8041325327097573,3.0983553592292528,3.751624817809867,3.9062113321455483,3.9753926740987784
1.5579823396961108,3.7051569058133618,3.104478266193802,2.180468518868705,3.068891593285096,3.750417793614941,3.855985145340329,4.0078388060105175,3.051388569216717,4.049384184685743,3.804970971233972,2.9052299487968183,3.705602018209058,3.7239100823777562,3.7171106675003176,3.756646255819506,3.8223753482055067,3.1132227912319292,3.708123088785556
1.6599757998764428,3.282543680253934,3.45383634727244,2.0738752050702716,3.312003461859361,3.396870451575423,2.4395405420450373,3.1520546458326604,3.526342735034136,3.714788223116728,3.8101626552102332,2.796850022197211,2.9486506440214932,2.8482507261779264,3.479531407139749,3.464102983096636,3.4668366068712437,2.642852331579286,3.098875691105391
1.3933986006146268,3.2800819768600884,3.1531653442137615,2.1088307849084447,3.3233677477660724,3.672682618732883,3.4676170757618063,3.983364657356428,3.3198149484212496,3.452620049726257,3.384171229372447,3.2660282694874505,3.286783106480093,2.944637639652026,3.8104635944678966,3.6070905338124026,3.806181344307679,3.0753861680638077,3.341911510605726
2.6964339092425242,3.5050389334790695,3.3376977397972905,2.385834134394369,3.248231865260448,3.5187966603032987,3.555026277389037,4.005807898871612,3.523953888860098,2.9586736511561447,3.429549437247723,3.098247910412504,3.4469935184990166,3.220182270552068,3.92648031249029,3.6871225551910523,3.6836867485822125,3.0480068189781555,2.8836234189158
1.6624526118442913,3.23554759822087,3.7399541108636742,2.1773761432069008,3.03079706583605,2.468867932193261,2.523710016128276,3.993954075454196,3.8857184205020068,2.865587657218039,4.00675888116601,2.5495123159716404,2.840485285927668,2.453432136589772,3.5888185246274538,3.5947307974662426,3.370788198486573,2.680391101589976,2.6199905914798776
1.4461456444581509,3.538042003006095,3.306302500916095,2.603438406584298,3.6991831320351882,3.176972058180228,3.54875057329286,4.0067820061444,3.326033523163057,3.52835277628837,3.660015161147662,3.2244381495120376,3.677094530859156,2.833986678886196,3.916154299120489,3.7743412335698956,3.9367047385931873,3.4409563264749634,3.5167555515305713
1.3529912380808313,3.5392602611786925,3.144880087461713,2.1689990136765807,1.61892203675866,3.6298584767249182,3.6539660614097813,3.221886990665467,3.082145566799079,3.9552482966592986,2.901093777878095,3.6560880834864378,3.729663245819262,3.3998649899306885,3.7303053553751004,3.557004541604936,3.665627623750089,3.4188427245851787,3.859108372636947
1.379194835156778,3.7763927712861802,3.3408944696670817,2.9048534379669295,3.178685631160159,3.7443412120516237,3.590708148680961,4.352093295970882,3.6123169780501296,3.58989630369248,3.9450136974876906,3.2358756488684466,3.4593713102776014,3.9900806273261344,4.070302807414139,3.9028954376110767,3.527760615920071,3.704802437439095,3.769033632774032
1.1540537900352104,3.960471719745936,3.112326600235595,2.131147050962477,2.2991274219822975,3.914034559470474,3.8848791469505635,3.9909694097930704,3.110933799551153,3.815540533928494,3.0305419890814784,3.1052510371737365,3.380416459270068,3.364616836332608,3.9231612202492068,3.6021399747777805,3.848446049976957,3.379391816322758,3.8107256235473534
1.9414183670228566,3.9301791573489773,2.3842610711897287,2.819940309837356,2.707100097355036,3.424922029767209,3.3045413914420303,4.046990512399063,2.365588261730572,3.7405267194172516,3.9492206189827055,3.0070768271171815,3.5841831986281694,2.8516697188192857,3.9849676046435776,3.175948257294887,3.555315227667099,3.468196643737542,3.514570283023463
1.3145103607328688,3.7088048691965505,3.4183806952007307,2.110448019637114,2.004112656737989,3.8254133887851034,3.567537778346083,4.014327110399658,3.2068518800715182,3.5422002641299852,3.987854777424573,3.069852699466845,3.4243760857093495,2.6249675268525774,3.6173220298484177,2.812729038692986,3.345357692185549,2.8807875791539344,2.9634418196904315
1.445547132135218,3.663384522196286,3.5350302179991226,2.1828539135636107,2.3441108683047007,3.8942649276068186,2.932443284420664,4.126158441251852,4.030790062448021,3.3993018988843997,3.4992662177049185,3.2523769722226685,2.6897437432800886,3.281469161999589,3.545835397865291,3.702502845968223,3.514264114247165,2.6877610054451875,2.725000663221526
3.505982479613277,3.239142313155403,2.933836362677738,2.731024080506112,2.730300266907449,3.686793830046663,3.733855049837535,2.641010750726427,3.087004176792507,3.8858247584455943,3.447478600659978,3.8019928554831397,3.7765957239525716,4.091628738615572,3.1202283468975787,3.8453960791256563,3.8690186514481333,2.5298930869103056,3.5964984320931457
1.8239025485208462,3.406299298914254,3.4608871997609265,3.0156818454459544,2.7611649623808194,3.6155252609917348,3.6517471416323612,3.9748080069344733,3.236804745660589,3.8427152084928817,3.5335786918610723,3.366609822882039,3.7157789915767587,3.463896988612085,3.8508311816191307,3.9746671071701583,3.943398303479493,3.706691838397438,3.935715546114831
2.0335344600616874,3.78055417640683,3.337939647576018,2.3645431508933785,3.397409469319834,3.366753923577974,3.4223531435591856,3.9657043477725544,3.135561656634528,3.8433966654225546,3.948541322710998,3.503937397082511,3.919488511165744,4.009119174262346,4.059323013188218,3.8127092021955233,3.9383815048965456,3.4968101300415575,3.7445821100184298
1.6981812806126477,2.4375449581494824,2.6899126607326522,1.8139243419192053,3.708742921346764,2.5636691077223017,2.2509955263222876,2.9058581192863224,3.789156032745406,2.8830316196325176,4.067461743838205,3.0417735707771505,3.088946001833685,4.0908359603879,3.949027478306541,3.9010103687576083,3.53186159679068,3.3598653549647413,2.765093109157016
3.3921116896098815,3.5973794771041847,3.0935561099272473,2.4213937384977116,2.979833965551624,3.8501942605066413,3.7445179473769903,3.887306143195893,3.3680876160204223,3.969390361788724,4.191169723679074,3.5106224532755705,3.5306661599898503,3.307053807836672,4.008920677502329,3.9654855193025815,4.054100918791764,3.760062184413896,3.884076613522032
3.001045595507579,2.7072708078353025,2.981775373300345,1.852705638486443,3.733137423959192,3.2157457445934594,3.400882019916022,3.9566848235789225,3.8205667442701094,3.005834545628361,2.933244264664241,2.875010193049733,3.200004245040708,2.7493972092914527,3.411721278607362,3.9493084438512533,3.4930832965334515,3.4517127362109328,3.2839950156159703
2.4501882496195626,2.906176322075767,2.8525916623666046,2.6961055327294896,3.054430788229679,2.74012187893768,3.3203090050758357,3.4181193428117975,3.015640230309329,3.66113320024565,3.254003096260541,3.7908368687272813,3.8590036380044053,3.9086806190829697,4.003896495956043,3.815567795880732,3.727911050767538,3.847155529448242,3.6548384976337545
2.513885469058986,3.2908192772405784,3.250259330168056,2.376770269805014,3.5052211609593553,3.797629580868935,3.3376274155789774,4.074825672505498,3.5836423747034356,3.615183102501039,4.056317084032146,3.568630044031585,3.8646592608711714,2.7684787013673193,3.761948248822151,3.7563355936777616,3.9770065756076436,3.467796741866787,3.085933013900183
2.5244927017011896,3.4165333109575173,3.527948574554707,2.195600092440336,3.4998267343958034,3.4786288268265606,3.351259741084445,3.825048600615018,3.755650975351793,3.3651823175384536,2.7871310563607308,3.1089335630195674,3.1611675544646007,3.096045687709509,3.587873994292197,3.4080080869556144,3.5798712420346095,3.099707097669252,3.216964263049125
1.8871221237141311,3.692607948181587,3.766342607811812,3.1302773430915907,3.094256330538841,3.9657438114870827,3.4438734688098864,3.089436294235885,3.3923620864134576,3.721542975093133,3.7968599078585794,3.4449366132137387,3.77316063240195,3.612066745957735,4.262326363020753,4.100978033415405,3.9364000492591713,4.004870456575573,3.573678954580918
1.9315880304978288,3.340079946955303,3.1426830872744116,2.555168677685545,3.0584523767583742,3.37575655821773,3.778280457063908,3.8749695684198207,3.0149982331185936,3.854432175471373,3.5569758584304854,3.37304338722279,3.8868663438380944,3.7134289514741186,3.9007790580753716,3.7280463416531915,3.729083140052328,3.663946057824151,4.032389800711678
2.198689448201093,3.010265164980169,3.4889782659497213,2.0325799350076923,3.778655448098278,3.8935927475860552,3.2666638791262423,3.9137800524706443,3.505612438964724,3.408650997113917,3.7891786574738346,2.82424476727496,3.0459050062935837,2.8840043688667256,3.5365316181780897,3.641345999280921,3.452845893793752,2.9534394355762372,2.9409814116735866
2.2002654349901962,3.2373915634622503,3.387318955200879,2.0366534041158677,3.7867317849279334,3.611641360888617,2.8551204905230563,3.2779939699243803,3.7660285654064096,2.96640238047819,3.0272914689205335,2.909954025352425,2.8795015772556236,2.6394386109824777,3.6416467144138536,3.5235231425862197,3.599314185663205,2.868256711724349,3.003539078814011
2.1063763588145052,3.662213118670523,3.6989311412749255,2.24850251756348,3.774378810444571,3.6460600527986076,3.333681822437098,4.095738477978195,3.9359908918316875,3.2827563441188485,3.668409198798084,3.070064907781717,3.283088178250505,3.3147878533110227,3.981252191391191,3.768938188789495,3.12985469489293,3.452706313620515,3.434745252798303
2.5991650266771886,3.243213442979186,3.241158639894349,2.252533366308127,3.4839932019169084,3.550257039382193,3.5472042592971205,3.335754937491694,3.444930959921885,3.9338102149364165,4.030323222592199,4.059911394547236,4.056460028661465,4.087825436918116,3.68572848056848,3.256630206203444,4.148401328791148,3.5643857223749795,3.811735266420795
2.5600238665863255,3.082562075105192,2.6087870446823795,2.4032406224819525,2.6531728441318263,3.54452317733394,3.9872383221117507,4.269420096142995,3.234785667358329,3.967915020504618,4.127622878499883,3.9486228267133563,3.9194101328523594,4.363266077819296,4.3702734023234395,3.9497412923893434,4.092931181291095,3.567908954778584,4.175396010663815
2.2672890012939844,3.4331235277307597,3.83352769275106,2.5285185447294607,3.9593560304417723,3.8865154058311826,3.420583085859837,3.265350018607257,3.801351240347892,3.679303120524108,2.537913540494146,3.587460720346803,3.904385737258026,3.3108510757908887,3.868780516077816,3.6483280922095265,3.9700652031793204,2.8959591631865633,3.545158238838119
2.9212810386619337,3.4145688140343484,3.6097387050081897,2.5519058955279075,3.886109706091975,3.369524414557027,3.078680002906224,3.6549008853659215,3.8817628895549627,3.2468136931772866,3.0278347472333587,3.075225473331663,3.081918954739512,2.9182485155357716,3.786746378997774,3.5411225280898955,3.324302347390477,2.855751732449006,3.3315577601464863
2.463792906320196,3.662099153601548,3.8147493033872633,2.4636462783355606,3.9809306813039136,3.929673246564575,3.3791138469311144,3.7445706946795436,3.6816971209193152,3.4679705145690933,3.2871628185176194,2.926170895026358,3.1684845340930536,2.845197177435057,3.750743794477593,3.466110588453869,3.481672927029317,3.4717100038437727,3.5074929676163444
3.1448769647617705,3.00730743578385,3.4718592080783575,2.8395771073835614,4.016473649757068,3.6687980181272852,3.067704887231023,4.103864715211737,3.5738161622612714,3.4436278347800124,3.9532823758164533,3.6952178762012173,3.4422458378417,2.866257584510821,3.9152274089186587,3.7335038102958356,3.52238856849336,3.167429133493181,3.3875633420179585
1.7015892873549079,2.64066567515354,2.9510386371251736,3.281425015479649,3.5714014162599197,3.2389856703401927,2.8142343767970197,3.934970704670113,3.953339277712639,3.280135681403293,3.42533239653803,3.808236947268963,3.127885604471913,3.1533724860748253,4.060556760533187,3.845993282992544,3.603970580693075,3.5352831262593427,3.4187383285021173
2.5775273233389253,2.960980075049796,3.273549068835135,2.0943314646383446,3.680708795933906,3.690010261898294,3.451444416528105,3.2056783938556133,2.898777927501994,3.790671400762063,3.288289988236543,3.6720008409643063,3.8144372621510034,4.305783534991038,3.935541675832373,3.2007134241138484,3.8435970715340573,2.8015610609797785,3.349390954946764
2.551873043948013,2.449660821643996,2.363841580915527,2.625899826339607,2.5759032511958218,2.5321763624335185,2.561492334382998,2.970111951750116,2.6569718676837715,3.1272920978905314,3.6068236710144332,3.18423726636713,2.893291263415851,3.728467880529059,2.95988363070517,3.0284291951416287,3.2499272048850942,3.0685964426145143,3.4513589455885234
2.903281652504173,3.0646852358123384,3.0591195687564428,2.4902155381748163,3.6132179824336816,3.7663105922141638,3.608773457535324,3.735923636907439,3.4727181790572486,3.633111831934008,3.403810666414161,3.740533874549,3.619331966226855,3.373705929082768,3.9817872289607856,3.449434232696659,3.628589493252345,2.98932533696154,3.609081545046038
2.7793827751212232,2.5703881187502016,2.8637930325015577,1.9909598807141906,3.398999317022007,3.806901224712339,2.292293953291678,3.7239093478336014,3.8601665173815065,3.0744560519770996,2.6928874366472457,3.2658988509556024,2.786202084051561,2.3476621531014312,3.37137976451762,2.949138242375634,3.109252963423478,2.276973895939525,3.0313158407354157
2.8346972311937764,2.510023770699522,3.0317794632646993,2.182005602598203,3.878074091501296,2.8482051440941802,2.4805254564643864,3.7044779702081536,3.899835022168429,3.041018984420555,3.782935942939719,3.286532534740546,3.1702732040839203,3.1044558107538984,3.854753476074851,3.7343787101798815,3.3793298971402805,2.8475803939439674,3.0519750422425496
2.8078680639176143,2.834877167927729,3.634222336309534,2.6221651764359257,3.6998421426868813,3.2657503096443086,2.75731672197199,3.671012759244984,3.7892551874205065,3.169147772566277,3.5473093475594575,3.147607404967543,3.177678441840895,3.1277836221059725,3.5818355422690273,3.566813266480537,3.1763436356385135,3.2176642543798364,3.280105888174812
2.6390081291381415,3.278612472983102,3.315012982264855,2.5263347977432846,3.6021917451946783,3.146431236989041,2.5733108830445373,3.807022586984597,3.620219770266104,2.765277083287709,3.333247752730874,3.0974140724879016,2.969624705547089,2.962731433642548,3.8255299433915875,3.5238473433432254,3.330068298328451,3.203191829690636,3.477989025308675
2.594111198330254,3.8359470825060886,3.387697800799633,2.6336573868156115,3.601738080147048,3.903015061542712,3.2219232683026493,3.807117692094954,3.7202048195171025,3.103918401924029,3.59174236295255,3.360440805715487,3.4623415794414623,3.1661560572303036,3.931235049148193,3.770698423299542,3.5165236681505223,3.5711369440854623,3.425724692081926
2.014687263782342,3.6914453058590913,3.1094961467481688,3.0838272955909733,2.642035248776391,3.5830824026404295,3.9057013731597943,3.8421169335602348,3.1383459811078303,3.5793127205794906,3.859006146471488,3.688868088880336,3.5090574615636267,3.226745173415494,3.9370738411847777,3.656603612676896,3.822002364801056,3.5964907414665723,3.746682366511206
3.123108235943178,3.962815108136886,3.241207343534957,3.0341342996613494,4.0280826377920125,3.10798555464955,3.7735372377564484,4.037762947757252,3.015824049287116,4.045422920957614,4.0725689036072215,4.011381304072619,3.9436165954214992,3.6433425911313586,3.9470213791127082,3.9953297181112646,4.030515237609489,3.792578299592896,3.9618060752151694
2.482091787547779,3.915447002123179,3.8318198162678874,2.91540611884743,3.125644934098621,3.376830330633001,3.9182458190457936,3.907585721404445,3.205152922760677,3.5955620046205343,4.086635818239166,3.823368294262922,3.8856377145941456,3.600933361297111,4.091831349895237,3.9634378963815378,3.7933798459053785,3.378043145251127,3.977279741225885
2.650993698387899,3.4270882277565082,3.8102894013285313,2.92739676964616,4.0033357528129025,3.9432703920143197,3.4013017359690165,3.984826308892033,3.7412294920105067,3.497309376992303,4.029805358875523,3.8310166403817343,3.482880793116095,3.3690456491973353,4.0752490251787945,3.710065677290507,3.4016407177507766,3.495918786933967,3.877743901893987
2.8187376795952788,3.6908910352912754,3.691862585914696,3.118684676284872,3.774529899255264,3.572813952342194,3.6064698275080267,4.003307140051185,3.364377994349565,3.2723414370529755,4.059958158098533,3.5570744727053483,3.155889563868448,2.9564120220104,3.9672816615049062,3.8331850417382354,3.564752945007172,3.5463941672032235,3.5817960385954746
2.498322381817296,3.1004481265444523,2.7361231266166173,3.6632385043601303,2.4658534054234558,2.625719986761722,3.423325001711295,3.5226349347865433,2.8419173983975137,3.9772769279494113,4.0919225955081435,3.8915076820333026,4.077754369509245,4.085378890335995,4.044908495028423,4.0593739146708545,3.9142378149673487,4.090289994348013,4.129491982103614
2.6510401741540415,3.1854289445218438,2.8597048238843117,2.602119261013448,3.9397775267390847,3.3159029538398483,2.7928779408757216,3.9180677572728504,3.553223833912736,3.0612842695511238,3.945291737985472,3.4570067143771723,3.2447572576490247,3.3390660101801393,3.839231639774971,3.373785983682262,3.315126785835,2.951867100645234,3.6780467799617855
2.2396496521097657,2.709957935947039,2.6200794341946456,3.6713997042937137,2.724897436427325,3.039770351812345,3.684057838643133,3.466970415514616,2.597905401626519,3.928392374975716,4.0175422031697625,3.4044478095546817,3.82780197627613,3.8451289377776425,4.0180661687757935,3.429362366023897,3.6822332560641255,3.8359727658566705,3.9265311652246013
2.5442511109956523,2.8783212826215148,2.5673695480303853,3.800746473947119,2.93196187764735,3.015401641248037,3.5507563431484424,4.0267041270500705,3.0350211046818627,3.9455508554761765,4.158244687548648,3.5822035676270056,3.8670608240418316,3.8250563611048625,4.000689115634225,3.7158269349963975,3.322721130218984,3.967281542404167,4.060737739951896
3.10755845530109,2.669357815466681,3.3148553955598836,2.75279630884976,3.8358218829887254,3.628818486318036,3.084650113921804,3.995608485452361,3.818452810802028,3.3847320262044374,4.031629877968424,3.364733518569655,3.2594333209388338,3.8598046190439574,3.9165588436227323,3.5496419297964863,3.086769645046928,3.1638467411899396,3.961002212958798
2.5025384292289123,3.131431331602378,3.309146362644019,2.5736380373839167,3.497188782923279,2.870973594300576,2.596896755576443,3.8124778998858995,3.45390027284353,3.441498978992331,3.866922186575435,3.016702092284603,3.063174404262195,3.549321787904037,3.793614532277238,3.6004593867349417,3.0508340508625857,3.4129960515925526,3.4856406745038675
3.42266486569894,3.7470771176548907,3.359032086846723,3.0495893331327815,3.374472946813142,3.8364455163146207,3.974238075333587,4.107581238702879,3.0302944067744018,3.950107956834276,4.002616834451291,3.8470508342369647,3.7529113650147474,3.5551279876948603,4.059513985351077,4.037279005842536,3.8786901530365325,3.495295907752123,3.911251671624905
3.271515612644454,3.6195553959153197,3.766832796360326,3.168415253784246,4.120668216535371,3.6322911348545808,3.6039151487983,4.045747387907047,3.01852958667112,3.9650422199429394,4.124153927965451,3.8644140637090794,3.7760578351803122,3.4216715541867293,4.046687544018989,3.988411162548909,3.898005354321154,3.784846919507238,3.742781425677278
2.873769511856342,3.8034375684769186,3.582702675174032,2.301505786183027,3.8128754072814885,3.81854222157105,2.802427483430114,3.8636773686427404,3.853307621670703,3.116457661901403,3.941441817874844,3.655388919640878,3.813920686207637,3.510433168494983,3.9496003033800906,3.794478129046041,3.7662213876628785,3.416597753988537,3.533271983783255
3.739713172081952,3.333802997259049,2.9847045199628255,3.346394524106183,3.5759501100673186,2.749552472837384,3.469352754526441,3.9181328970548353,3.657690089651609,3.4864389904539075,4.112450721466752,3.5690921239148197,3.617843360622771,2.89696844824539,3.895193481252436,3.576915508355958,3.563013445062457,3.688063891493335,3.7625325088785484
2.5680493148717103,3.7296933955897273,3.7719922795428773,2.5349095969569273,3.96303682045422,3.1740612120455847,3.415172548386761,3.9334203131591585,3.7002983703094663,3.267225557334863,4.080340226067031,3.7154942683847247,3.7932729482674143,3.8538988205752616,3.8999667831593685,3.831581275629694,3.631538718926798,3.7415598589370647,3.776655198017787
2.9176363309425417,3.041992357430568,2.6677056898855973,2.6495174878475,3.5735030529963927,3.673450953253921,3.7385461886407136,3.9677007037823455,3.362015446620487,3.7628482962969145,3.8144781060328548,3.6908038504636904,3.305569939380161,3.49915359157378,3.9574661970405103,3.8433112763588007,3.7783815754391683,3.4298595557865834,3.4938446812488486
1.7744815754449084,2.7316100998170274,2.054321169784247,3.6855908537134985,2.2104078916293597,2.295035712819236,2.6060948001751294,2.766398230171413,2.07463137374592,4.030848956931729,3.9831015870661313,3.2522717245010293,3.9145208293599922,4.175492596094414,4.053162505757146,4.047985066834969,3.675048972339521,3.918142027651161,3.5657165136003948
3.6155046487971685,3.689812021217607,3.6555696078623745,3.218804523568883,3.1199184006742335,3.8128713852843585,3.644826287914695,3.474229322297257,4.217463935393585,4.054026407858213,3.691808131973262,3.9804579096138792,3.816128230775398,4.185386230569032,4.160847338772011,4.073470444304676,4.13198764266597,3.7126577596852743,3.8998458206297157
2.8188941472406293,3.4593503403649777,3.065523678851942,3.8374421226490862,3.1927375408056364,3.3441497501016793,3.8486249592435184,3.931113477840531,3.035409632043857,3.971549220215953,3.9579012659644506,3.8952457089644428,3.91328160878089,4.102211810435701,3.978171769947651,3.7802114495003294,3.9689646439064994,3.932808753195715,3.929605254615095
2.8841851892819284,2.709716664249,2.7132408919007087,3.9770587987442974,3.2477463836298104,2.4717593474426534,3.052516960127199,3.8798904837454797,3.1082795172447075,3.6523505231852766,4.149433841627949,3.8631464260321344,3.7059275285756286,4.1762962360369436,3.9799395276201825,3.9409491045878906,3.6572134379105643,3.6437016435707714,3.8183732809336335
3.6374288961985193,3.2952661511243284,3.4560596626098126,3.8351907559691116,3.548791420761902,3.7155765119219915,3.4580178049830677,3.828573321506192,3.558175840050339,3.8717601031865043,4.1262671548344,3.586498711603685,3.6829504318637514,3.2620011651340604,3.9197885637547767,3.1952783255840695,3.6012670077766162,3.4133891991489973,3.9839294278858506
2.2215541341418006,3.494951524172252,3.433591603241153,3.4453374277119755,3.186201030213527,3.5540979365696455,3.3782683090670216,2.730897688118838,3.2653639888744506,3.8581320638470973,3.5241210864271406,3.8380135169551175,3.601782342873162,4.085640864011983,3.82865170190503,4.036237253935617,3.7418589291491373,3.877580536102115,3.6380482373316623
3.7263744412687645,3.9280547489119475,3.5864354817723787,3.636741039359104,3.9443691030874293,3.810628753686188,3.9173562261253716,4.0080044904800385,3.95483568791615,3.951452675994737,4.059808849075708,3.8950851120680268,3.9855249758532323,3.7077927275351215,4.109457315095246,4.007954290604467,3.943777169713318,3.883077662842408,3.966625883843907
3.9697410427058366,3.889079766460008,3.7898248422049785,3.5059733484940034,3.870823444534608,3.771604158481717,3.35550218121682,3.896953955010102,3.620905999428872,3.754085081789931,3.9224417486646557,3.592282998362317,3.5720993216709087,3.3167070663794673,4.012596698518695,4.0002914888711185,3.6657835177705365,3.736004021033485,3.495552981354529
3.330842255727972,3.4732958294796332,3.8610453385733607,2.813620505078359,3.8215725722800187,3.957845406303391,2.776089112028796,3.9765908515745383,3.7900801520579095,3.304517916801816,3.9345320189821478,3.5445364577516134,3.7925328965986886,3.100258519641456,4.009461812078259,3.46497737621275,3.5476428514969633,3.4867694662356308,3.4456977578581083
2.413746878489568,3.513583774477598,3.2024191354764824,2.7439871969058367,3.4033053494033276,3.5698280597019894,3.4892278524529012,3.6586394639173805,3.3986641175030496,3.5010263452670727,3.8832059525871188,3.475498745157461,3.535065290344156,3.327294358117508,3.6193351209073725,3.105972195574972,3.600959615491317,3.491728229150136,3.554273933577906
2.7294225026090455,2.2661802482676907,2.255114748469988,2.4482952454820306,3.405201561828998,2.81484775076106,2.4048389845038782,3.6573261732720077,3.628380894426564,2.8120010088599967,3.6657336166107366,3.1432719199156005,3.1562202925669536,3.0309447706176447,3.6465351208975973,3.704859298574692,2.9792044669293043,3.330030755534845,3.131442500714949
2.6742138740988537,3.196343858520772,3.1000069585141907,3.3053123868995185,3.361870345260102,3.454528741326552,2.7936759302324585,3.6138102708547284,3.270574728179386,3.7939400391007965,3.847635107904849,3.5240463825108086,3.464959808076644,3.5018052054709843,3.744747554962051,3.6652969694020943,3.565922638336819,3.358322586351156,3.6849286291318624
3.306241152982185,3.822971289467798,3.5136399343168274,2.6431592202450997,3.584231641285271,3.9085207274637725,1.379549821355465,3.6887683088915235,3.9709281985938776,3.956254967719082,4.108910923722653,3.511385871531702,3.603800443082903,3.4327161559123893,3.611305086129761,3.702936758416077,3.9524492822786517,3.1629679448323484,3.47803650892862
3.7394399944318883,3.837138425385734,3.543764299950442,2.763136579234156,3.556579116426127,3.8640274196112117,1.635220208133832,4.018061700633524,3.7016029618770365,3.8361486248050967,3.9020483342897707,3.741707090289701,3.5010162236976927,3.752133747603652,3.935229231719456,3.5464260821851648,3.502320650454469,3.3734635308176815,3.587350481031168
4.024512197366254,2.648813187102076,2.901010805716102,3.388054052248541,4.1335112300576915,4.033691264906465,1.932420127657535,3.9647379512478205,3.9756145764472843,4.056573046092905,4.049941232565635,3.987439761313875,3.8296322032012498,3.280321923936994,3.9667516882564606,3.938534181901464,4.110593914789906,3.3770815679956234,4.010307176819139
3.6717671329073673,3.4740230091724422,3.267996618083227,3.7565788492595127,3.5556879469687823,3.552343654646467,2.7325926295424106,3.8719886008350497,3.221801193083238,4.033109140003752,4.091998433352509,3.9060864537704085,3.9807816307059762,3.9554461358902153,3.8202659854853795,3.843533538415596,3.8938215696867977,3.967197848126074,4.032785286036465
3.4595945607198746,3.5115526948012694,3.670011485737229,3.0075015555096134,3.7866524900800727,3.9289719876767624,2.9388551056179004,3.9233455681066545,3.7384886825959502,3.820677296635199,4.171920140857082,3.717336298750546,3.9054721573690774,3.420907778469791,4.120588775288153,3.799816935432447,3.6622213529643974,3.5158302499905014,3.885722882038559
2.790026419972421,3.1936630237193,2.5940158093658967,3.8845860188919183,2.7192298505614154,3.051690415125222,2.741308463956522,3.357939524095844,2.6920755650793473,4.101845366302742,2.462973553497603,3.9743712823717883,3.9463059316230766,3.9614163223951966,3.6601429107005914,3.7210997257505865,4.073824212050298,3.9661861918173122,3.605890673369158
2.8956180836349086,3.150636744375343,2.3769789921982047,3.6547029744370585,2.7388708262875707,2.5674506132502803,2.345907839536918,3.953500462495403,2.6145649664952586,3.8438206202982763,3.6405317295354696,3.665680423616839,3.827919205315633,3.86827644984429,3.850854517126241,3.9639064357405442,3.672545682382617,3.8465116699174993,3.6976952415360533
2.792677475131308,3.4006078302787297,3.7008056666257096,3.0605900397856236,3.0709517070523433,3.667498604876735,3.570224801203283,3.6976991739692298,3.563185663066411,3.8140463836931473,3.8943657728087233,3.64757964934524,3.821171107757396,3.877055415875939,4.003495520207522,3.731257084652484,3.664449633027005,3.801110183736353,3.870327398520601
3.4800451233804437,3.59455796376488,3.710537363090163,3.233308438628978,3.6863326716539246,3.6475538447658273,3.703394312848856,3.8545787892080816,3.3470412979013973,3.805212971806242,4.045377822128807,3.591191334026124,3.47258991795958,3.569837058695681,3.8940008304317133,3.6725774002795166,3.7727548457500544,3.278852512552477,3.861780309491547
3.451663836289124,3.6097844252904516,3.826577760489332,3.3841397125056054,3.009013266209504,3.2743461694325977,3.6823669533902503,3.8745752121075205,3.2365358668651534,3.8042250905802035,3.765140708214124,3.6713193844704075,3.6645792227151235,3.3696921629660275,3.841493295645207,3.875070201994356,3.824172648262797,3.6675620084336304,3.815857014479556
3.6770897785354832,3.2383233067816177,3.6549358089777026,3.5325905801508464,3.8777128405781576,3.4451017921416085,3.577082850686213,4.002554505138194,3.705367060855396,3.776061740756579,4.149155118034559,3.0853071841585225,3.79664389248068,3.904218899815464,3.789604508752388,3.917250814541953,3.9011319367537385,3.863941814680412,3.779670847732643
2.649761497070738,3.0903554178796147,3.6000014923002803,3.512657848168182,2.9146270461486066,3.652374673328105,3.7979321990603965,3.991201581152925,3.4428019579555977,3.419667384918906,4.130680175395212,3.777586109771589,3.8375592945859105,3.9120442434682943,4.07733082962298,3.817857685080978,3.6350857639997693,3.8398343727566617,3.8704703119953443
3.9550015555737756,3.3683599030993774,3.660105179577443,3.6488387323790836,3.910283600581757,3.895867632605807,3.4485400296402866,4.008772969441204,3.3575945627260366,3.8589042439158954,3.4431261487486275,3.8221290371019343,3.741069403227385,4.061220730454589,4.1101602194958895,3.860432783252665,3.7181985253595835,3.9212446788636597,3.979491700135776
3.8222944891653814,3.632138847238243,3.524990080590347,3.5943563042142768,3.3890410227965373,3.53340005982991,3.8596856999858953,4.167436633963888,3.521016108136645,3.996454509450478,4.071099997203874,3.591047059297111,3.869536804804365,4.1268926555219325,4.0547360549425076,3.416074142651026,3.887801787725567,3.6206795477485865,3.884670001837128
3.9571763688076653,3.8746886922438373,3.9211425966268223,3.82082164046303,3.607455136144091,3.877600326936975,4.0314297391815925,4.1548623687179855,3.231494991283159,3.9723039647243223,4.135654104551433,3.605527832147757,3.812777400576872,4.247723969634609,4.018644415983307,3.762600054094108,3.6593368231934362,3.6724760028075956,3.9285210538153845
3.656933025705971,3.777372870302641,3.520022294937529,3.9905926556601194,3.1655168383219405,3.267781107697838,3.2167385699431397,3.819611439561261,2.703931328881118,3.7734704633089744,3.5673819012493055,3.680387621061521,3.8056040363726438,4.093353984728939,3.887672385887014,3.696380569217379,3.706107916123142,3.729293238540525,3.808638996273146
3.4767112370599063,3.6245181898897108,3.7419935047748907,3.7933690598494554,3.891275053910901,3.6771165664399357,3.48064324305989,4.013658168660555,3.8491782873378075,3.703559146186627,4.131227739666465,3.5841412198982807,3.6521672629580335,3.6991035026241574,3.98162903407788,3.4995123702854922,3.699849804909793,3.4460209259845453,3.9451320144186197
4.058162147987106,3.3149311892563125,3.6662367828727147,3.6683878853796577,3.843023244541319,3.5896057582214578,2.9212008751332617,4.029608016733522,3.866614938409589,3.737745566638644,3.9210108448377095,3.3648237127044824,3.6490914764977154,3.486589123973722,3.9725749836552193,3.506790848573708,3.329594665202909,3.5128638391491496,3.8006021556817213
4.002405985756334,3.9238939331355027,3.755821781164079,3.0153630496403228,3.7727838609342337,3.862143164947147,3.7263852681710885,3.993624944357765,3.8936245798737996,3.602968877710498,4.027585637539784,3.555116445967264,3.434799765591125,3.592979633011622,3.8845921171280975,3.5824022827877675,3.456436936112086,3.7939270428754455,3.686999192261386
3.985879540568598,3.7553864634077017,3.542383963695004,3.8290344571707373,3.724468416951654,3.7125351094495374,3.562195785573947,3.821539958238423,3.256380957910036,3.8900307315087326,4.153182347234779,3.808076352845069,3.888175392157572,3.877102698210363,4.085631739784895,4.007265263267967,3.82225624669984,3.8220380606569226,3.952975672223481
3.7884205316836654,3.724940643891843,2.829368761689151,3.174739478032331,3.549144678990305,3.489381442107557,3.415707600622052,3.7514157734182882,2.6732679397467427,3.590594897635258,4.039436526665743,3.382880647776924,3.706690935276484,3.8537570406265576,3.761057332537204,3.549590894374745,3.4604321638347018,3.7881370402223506,3.696141222141763
3.52513599127645,2.8854296296013304,3.049799671315136,2.8977524381760937,3.3071245548781856,3.1670248939422985,2.989743379543885,3.664201264245934,3.594314013830824,3.45035277720551,3.830110664702397,3.520091039685566,3.3249326835426682,3.3380794942834204,3.6737758410707424,3.608285483815716,3.5764480019195184,3.2003442558350224,3.4683630191628603
3.852208234384163,3.250085282611479,2.994937350226624,3.089572796706657,3.5956318114096693,3.3539588415996917,3.530112271089489,3.7180286615279705,3.674169904397586,3.2429299227978365,3.914184741068222,3.6709404973430395,3.6453934244528776,3.346066250665386,3.9290225176727773,3.6134421440738977,3.479029618402751,3.5883741812807557,3.822688953201161
3.4992207982064367,3.6003991021382884,3.3489145386519166,2.74545115162228,3.8040403439953434,3.7565189205684955,3.0465864458137886,3.6979082525025184,3.80915876336109,3.6868236778008727,3.9434348745521968,3.4649180482308704,3.659243771256012,3.7551376498531477,4.0679173306046446,3.514580769239301,3.6098428545915158,3.3617866907773934,3.517146685116738
3.2914259844408678,3.3423704339322335,3.4983784170472783,3.363003256743087,3.1613515768874607,3.8251827529877493,3.5880739581612753,3.980268341417567,3.0765050447876194,3.960376522720745,4.108455935159629,3.6623981624538664,3.7782567385518133,3.8943869737942816,4.050003016090685,3.778571204839297,3.8036873952527945,3.918791796294145,4.003843282640396
3.656062102899968,3.7087213575163873,3.5258058248706035,3.153714828204832,3.83056564498895,3.7821355990436247,3.455697771835175,3.7706564423594138,3.8011986051019973,3.469406525649504,3.963327783617525,3.828035930722469,3.595318771267794,3.4029189288995116,3.9909963275741793,3.8429469602118735,3.8430046130142594,3.8219095510126126,3.61785171572333
3.137424165007388,2.9023811861462883,3.081961427475877,3.1966466640840547,3.1143724783806914,3.4079774387060926,3.368999139396731,3.749578633598396,3.0810036066719086,3.618327955592092,4.012534739575774,3.7095167722711078,3.7198008311142243,3.875559473975921,3.9085032710752143,3.8498446957595656,3.612573469092556,3.4995082862957676,3.6714390917337263
3.790591658309166,3.805670904203205,3.8376372840659316,3.3364574489322174,3.953560231053646,3.910012780381616,3.5618201300154837,3.3482484605412974,3.660702706146682,3.950394717343805,4.024127214670408,3.7810784402305955,3.8039144344963796,3.691437756931009,3.9553182829233076,3.660585592876458,3.833702513492952,3.808742874273639,3.770454915298661
4.068165147689829,3.732057042285883,3.5282121691475927,3.1735115103326788,4.017666690071844,3.915616292886029,3.7024839053463228,3.4929282030438977,4.0161896960460695,3.5046172338148365,4.130066560031359,3.593409954586924,3.556718093778507,3.3875472665025526,3.9358189833790744,3.8027340686926183,3.542476383676313,3.268450599509463,3.6837243730076246
3.87844175665922,3.726728980305417,3.297997243662486,3.422681522670457,3.7068080610837972,3.7504539539412267,3.9174077468432964,3.9413466998479123,2.902365985824719,3.998235004639895,4.049988541115654,3.7695142311605356,3.7319266372948943,3.588968347846146,3.936530911461558,3.8281268643412223,3.842582079082793,3.9108790939039166,3.98467539173196
3.7715606991453123,2.587878411749526,3.023968487012231,2.3221037347143674,3.921494124960492,3.783408412389305,2.924629705753444,2.991979915644779,3.7976587267385766,3.8800303623586028,3.942399400572527,3.6882660330123374,3.7910426624338247,3.913282643590962,3.8867734451110807,3.5852908735220077,3.750739024094598,3.2129673174434337,3.444523162471998
3.330924594161119,2.7174445634855786,2.4138175455279076,2.48772084694526,3.1564153392465024,2.6876183000337295,2.69420108132904,3.558213968995134,2.6650993286562215,3.5561826899380535,3.6642704913090696,2.9716193103227084,3.3627163051680244,4.028698144542174,3.6996749832150426,3.493167576375938,3.430951977837033,2.9783729615254746,2.8011342504456853
3.3516655166624183,3.7341842686022204,3.7130946185085145,3.693640726936713,2.692623333599498,3.875994643077431,3.6408867083586802,3.8240209555384146,3.8804168968359494,3.7204429993791446,4.128713676266832,3.5022524936713473,3.878361629772293,3.8413337483585583,3.9379811469260906,3.6415281565713524,3.3069705577560677,3.3349715529742205,3.9678145473655264
3.726025854333749,3.0960890739965037,3.19018783139087,2.8160300979041595,3.535406091262448,3.241732736114467,2.6953278015278874,3.921564474258112,3.902007312369341,3.4299643954230654,3.986225997835686,3.886571819776986,3.6453027379127283,3.25708096373545,3.820180264109183,4.0035280040287775,3.6126438810198294,3.328048497351123,3.7082519202503823
3.795780514717833,3.233277967758234,3.2845082672476953,2.566142899523512,3.4420570691041403,2.6280849545747555,2.7203456173665033,3.8809891698331143,3.5917310303384,3.234361170241892,3.5195138898280125,3.1817835694598435,3.3104994921460036,3.189325996849574,3.8736093203430038,3.2766095897825482,3.335920459705734,2.863887545192261,3.2682522853781806
3.007055181034723,1.7821283356794417,2.173250848953616,2.642459224867016,2.604956536700035,2.4496689956387954,2.493509780038638,3.2750071596121098,3.818690696864803,3.3483995779426037,3.652870360784403,3.6201077866733504,3.2285003509452603,2.857994381916655,3.6511301957219673,3.6624675459913023,3.3051464857762403,2.963390130306852,3.4402335957984205
2.8624881162500078,2.693965508754407,2.5149813292609013,2.6633553186360888,2.746604490173919,2.6633714900906353,2.7075884976673996,3.296028140062807,2.819999261061838,3.8058508809776015,3.9501091957464713,2.86717828509657,3.6307748120962993,3.8830234694017713,3.6528730562384473,3.4467210663689167,3.7312231415048753,3.112427552852286,3.5321255800661677
3.480778385423423,3.530695832205189,3.6738712525643202,2.6947073528685195,3.7271009397150374,3.7403081296242666,3.5472555976583724,3.2365950568676842,3.454061712005584,3.7408425566123507,3.8797424438112085,3.6883108794883577,3.731019054147206,3.8524883571646154,4.065418558764727,3.723686732900126,3.620301298434266,3.5708432584830465,3.7033878802596374
3.670887149408437,3.598740219861657,3.80455635457772,2.7001603608575806,3.7190001157955725,3.6569975427941532,3.767991064620801,2.716935870496254,3.466150516666841,3.919752143626183,4.058626449215936,3.442353461901203,3.795098738451672,3.9159559410378386,3.956226843062229,3.7045591405624196,3.803082429020509,3.578811115672429,3.832781172314095
3.4454701240837338,3.6888986643369206,3.6198107195989557,3.179922274882422,3.6572089276518125,3.61529663751203,3.493078505197721,3.033436126732311,3.775865181285266,3.5183443312534006,3.962249077608609,3.5881705708366782,3.624492750067422,3.867132200236723,4.0261414314104265,3.7188247815500195,3.4738418070590757,3.67864107943256,3.8620395846410056
3.477790093372551,3.371920035770819,3.0655306303128165,3.031918536658118,3.7779520852887236,3.0311016754525943,2.585502728135376,2.3374148970551456,3.740609067174497,3.150283383185388,4.012378295500155,3.502423525701266,3.752122434913507,3.357579635840335,3.898100029433579,3.766619681960773,3.636286291338855,3.522043586833029,3.6149175131503704
3.477906061365674,3.9404130542084617,3.8359537159324533,3.0585467378065894,3.9610072577747695,3.9102733631390993,3.657827171916483,3.496405015625878,3.5864747785739417,3.913815768846462,4.072420970055458,3.8837181138028813,3.652786474095496,4.085833414492077,3.9768666115883198,4.070263398545825,3.8002571242439607,3.7704704790910664,3.96927665580066
3.912510381099323,3.043159933882059,3.616415405128468,3.0973131684542854,3.7625381255257047,3.8914596636834533,3.352544375796425,3.608875693025673,4.008728401750196,3.9783295943142876,4.124571590963247,4.062904089454178,3.5084974660764323,3.6097163769171035,4.0410293110191295,3.959226851440092,3.909495946811638,3.893016703015684,3.773905727351847
3.8307210379378898,2.1317795250067726,2.137490511580408,3.969167913855481,2.6462238711901844,3.099673053225204,3.333326520512677,3.712823171305846,2.7071235158054208,3.956013047404474,4.059826169037444,3.5146287339766626,3.9588022995356598,4.1299721797919995,4.084280501895794,3.719026613329728,3.659947403952963,4.089064534359161,4.10815692699284
2.997634915218379,3.0388952457549627,2.8494202177366117,2.8163502635108895,3.6939841925778283,3.532440006824058,3.100114170520797,3.195666055409872,3.230218660262968,3.6164737086253846,3.8793549373411897,3.6943391050083085,3.6105769436339967,3.1052318020876783,3.7771960638136703,3.6988002854396598,3.728725978112875,3.3619517501519387,3.4898744766194563
4.033027800313629,3.8063646661586503,3.754292933017826,3.167348225327855,3.667822377821894,3.270411392505631,3.5206057492132,3.7799035590438375,3.5028980726767878,4.043054428639301,4.2275881009391645,3.3342576698020316,3.6809418427894918,4.162182125836285,3.912987886155157,3.9153249653295337,3.8442479574397903,3.551446006056264,3.4416554725658868
2.570389356552438,2.561093142999996,2.6749282146945608,2.0890426900195345,2.4053451597095097,2.8915900414694864,3.178127405155837,2.4409469991597077,3.23439258622286,2.600963177631294,3.863969963242307,2.6879753613294723,2.8322273427828017,2.914057976127718,3.102741633727395,3.1258982700615627,2.8601829306933126,2.480946170824474,2.369038934048748
1.4631559505195606,3.5084684933189867,3.166437617183705,1.9682427189885117,2.092857474929928,3.3561561406423257,3.3839342904914,3.0956906709988576,3.581940817737521,3.616868669399424,3.0785694660878153,3.5544777510700336,3.4465678009104384,3.4892390943002387,3.5664019707908614,3.349547092008882,3.5952976946985107,3.1904221730993116,2.5462883092843676
3.041211472221808,2.173661693583281,2.900984330599503,1.9910137591562431,2.1503697886516817,2.4573759824274797,3.1945154558973496,3.345728946978477,3.4580116977455844,3.614959872450437,3.5827773246497503,3.00150798620933,3.6670890490514876,3.529804036366404,3.7388446369613813,3.714478100817477,3.538034980714321,2.910485163939903,3.608774325743325
3.175256023231203,2.9669889221841745,3.0089105236402633,2.3332231600313107,2.7669786410291137,3.092662242531455,3.2625373457518507,3.1296558261261347,3.321556248044225,3.743429451146704,3.4183620057363595,3.7070928821473155,3.634480683683221,3.470900615211467,3.5243852961501583,3.6891306033345774,3.476743479386702,3.125722694661799,3.2892078640174423
3.33434577081235,1.9225334903436393,1.9673558275594807,2.730405312998392,2.4279758536426037,2.42306458654723,2.322959410872778,2.856306986561058,2.6887280326173726,2.684050179020832,3.0093539544782715,2.759676014606962,3.127081321626904,3.1843917072748362,3.539602488650685,2.8216390622033733,3.1629045753710208,2.7218291324176698,3.2404946692310572
3.3298579717413404,2.9847166244703858,2.96729996780798,2.237986730979765,3.316091116951715,3.1370221637659843,2.6192385933449174,3.3974649234702383,3.367079698363828,3.5580751130608284,3.7540619553217747,3.611060904873833,3.495497134340177,3.3998479019777497,3.4506460637713148,2.924947902457314,3.4702094972214965,3.1461120908643045,3.3570903066800293
3.230324371062618,2.651460649016672,2.535310470041974,2.2641332580405744,2.3480425641533036,2.769131193903661,2.5825323346440228,3.3602576796685346,3.2094044738593004,3.2760121435222556,3.8964778839846486,3.3790998151309704,2.7781560077256024,3.2596398536115574,3.6344060710559796,3.534737184372365,3.4699307838075906,2.8112895715150548,3.2376628574018453
3.2074383321516313,2.793841843642207,2.9930406354426804,3.52526838154131,2.77276089003002,3.128195997197412,3.310309224367524,3.2353193699931864,2.9408407143841955,3.519382133554738,3.366519744196999,3.110794084164959,3.6293447560264895,3.6145532767591044,3.5963034370766143,3.409643376509986,3.401155850381966,3.490776042127052,3.4768311843415285
3.4781698379346713,1.9767251081402362,2.605173477212637,2.4145390581402566,3.332077865505557,3.3917432327258488,2.476410063163394,3.552883529679091,3.5092014802650344,3.5656938767822743,3.94155541316967,3.249379021205122,3.605237533507507,2.716931594709243,3.6155143003020127,3.114354882859305,3.5633649394828653,2.922793133270926,3.1319786428458434
3.383055688692966,2.6728446878415513,2.8556005212294053,2.833158040207966,3.0809109502372,3.0005178428662593,3.0108274261313097,3.2775551575656836,3.1342541381439304,3.540213815135685,3.5561059117274247,3.2512137001859354,3.172386527983244,3.026505100034742,3.4506764674084227,3.567053178913636,3.4371868501810736,3.0178098864254848,3.3407949213784653
3.5525887732097603,2.9339521354502884,2.9595108854154826,3.0472964443219337,3.1897900752130544,3.292303794389597,3.1231163432932045,3.5627991375204098,3.2263438021100197,3.418150167215608,3.501604221349405,3.4589245421139556,3.2934907972388965,3.005640853309166,3.48699587097879,3.4022846472698,3.4957939670241287,3.1943205418223113,3.2911143212049425
3.4106990841255977,3.0746579689074345,2.816922504964322,2.5614813111506503,3.3195817301873323,3.24742255505228,2.707737697328698,3.3987846068844414,3.336469095907498,3.4670058080161645,3.8357848819687668,3.433735477596459,3.07636689900249,3.2437807540312313,3.5163837816347625,3.3732052086167217,3.2588607005947106,3.058804233417393,3.301311450256206
3.073658511340336,2.7734375914028733,2.583908078136533,2.925235470360146,3.026966341283148,2.6819386747444742,2.686233617147983,2.8035363371665856,3.1194161068565696,3.312138841363647,3.132054595228005,3.1159975805070874,3.09872357395804,3.7102012130287028,3.247213146550316,3.65187930180383,3.328967926648434,2.702599489174372,3.171756657676834
