F7,Fp1,Fp2,F8,F3,Fz,F4,C3,Cz,P8,P7,Pz,P4,T3,P3,O1,O2,C4,T4
2.4733811144593703,2.7802463479068593,2.436749452179766,3.3364413824951913,2.8280006530757733,3.5061549240356857,2.8031966453452104,2.4474408138135604,2.6513849559935343,1.8939352219066778,3.845559262910857,3.6754731352501957,2.8300939078314387,3.6057570977063915,2.9791292671418037,1.6536688430928814,2.0555757789329294,2.672721120442498,2.4760383028667534
2.770738066310492,1.9747862905547635,2.0295078373786932,2.3038872037586775,2.02460327631019,2.3875852492080485,2.6763670894185516,1.9560223075271912,2.124299122818848,2.506195720453443,2.871122669087146,2.5132811186772477,2.8511728375012892,2.6376201723831896,2.7924731983873117,1.801003150268095,2.5690627555841874,3.015908571946194,2.6848739508039037
2.9584196814426535,2.4661939902788133,2.352959936780558,3.10682720569145,3.0831387778617936,3.03961946007501,3.26460705075186,2.0036222766692933,1.9267565954242731,2.6785615015157775,3.2697774401811035,3.1406175865745243,3.1739905601590914,3.4425791185678,3.350187210781126,2.7610427515658817,2.4030457712139666,3.360190764699428,3.1828326604552895
3.113006625884483,2.8281192413567044,2.742132625442829,2.2437112729172917,2.4930908747230083,3.087307228408655,3.357236102574205,1.8320560674158048,2.5476511935473027,2.476326289639349,2.633515242829093,3.4672000245990975,2.8245023761623727,2.7048281266799212,3.1315599594356924,2.0937729205445197,2.3381800466419786,3.336653707004406,2.375097027579567
3.4743101945536985,1.8983001031457334,1.583188784875658,3.438214576972512,1.9489317834043764,3.1173475237000083,3.2650421894410333,1.561909630659228,1.7144549543228407,1.6978298897696102,3.6672042737524126,2.9262567700844535,2.296375959011589,2.2434116779165914,2.3492423994877822,1.5690044108737125,1.760472334510056,3.5831086104667955,1.9321429186244365
3.1623295198804646,1.9949629949307572,2.149488220237452,2.899835334439911,1.9078132606247358,2.3860772047389363,3.0615273896526674,1.3877302168498098,1.708317731719084,1.6981504262633167,2.0135847538577285,3.151216886293252,2.845422487514964,2.2370695729067664,2.83938375173848,1.4374320171741828,1.5756202209730825,3.0008234176364237,1.9103347534847699
3.0712930990109197,2.128027528063747,2.44964474978383,2.5657035855329666,1.6549794004622422,2.195566632028448,2.7091637180742185,1.5320809491691183,1.732733210258054,2.054523350530007,2.503049589996298,2.675093126354522,2.339896236970666,2.3188709797897693,3.2738825226831696,1.554176633929149,1.8507486665518555,3.1239245868805656,2.02079820490532
2.8887923358289016,1.9361944342170219,2.344102006320954,2.431194660327291,1.9571098556696753,2.5524677242906746,2.908374469949234,1.5901249845682426,2.5664314017778667,1.992331312448945,2.7403724863096817,2.9402041043675156,2.2099844140315708,2.2184855767034564,3.2102400797562223,1.8211615588610628,1.898277583855481,3.084575469136592,2.244859889975309
2.4551256032833857,1.8427547968210252,1.8160120002287732,1.915713139382211,1.9084205434507804,1.8755293395022479,2.4779162343245216,1.8603254028090221,1.891142544875826,1.8782643192540949,2.8020419996100734,2.092551066121374,2.270380555499759,2.140878925339083,2.113365359528479,1.6964594976083471,1.929471681476725,3.2926944222142884,1.8954642835707611
2.663756622384578,2.4129560933299503,2.551296448141734,2.2783508739258047,2.209509621646354,2.6108226151148903,3.224915119459001,2.2583501856991983,2.238579250015443,1.9912436664384312,3.1677366775772464,1.932412988004677,2.5605208008619393,2.6974818851777576,2.272385605203085,1.4452432888261912,1.759915431047605,3.4412251253413544,2.5260888053598194
2.8137817421616425,2.65959693290529,2.546737428338576,2.4290668771962034,2.315628093978184,2.7608461809857068,2.809482186713026,2.242543096850534,2.2168766047334234,1.8458302021794146,3.0541026518766525,2.2539414970484986,2.5728982825212747,2.8470158583061087,3.1683299585012827,1.6133360460878248,1.888282060317971,3.087803668306195,2.4590436990136686
3.039329087613456,2.948688157757371,2.7347691099238842,1.899207725172095,1.7822016165547878,2.9229232400227176,3.14184248803447,2.6538731848619554,2.6898440177220135,2.386437605420118,3.8930638021216275,2.752684306456494,2.9671847861400487,3.6058299633034916,3.0206300187814015,1.6741747829364972,2.0972888585675986,3.336342714097597,3.2162228918960682
2.8239715302181287,2.3843070581747003,2.310191851352678,1.9332625100922078,2.609866113901437,2.3201419231719473,3.2820713079671195,2.726011401899389,2.1654329195603337,2.403582223187051,3.333109306494741,2.57346818648126,2.8301716622762,3.541939094291027,2.6479294160489406,1.801074316067927,2.17675237266274,3.4413269015623933,3.065837597330609
3.390680606841352,1.762442285373817,2.524177277117126,2.47643732818665,1.9041444951542768,1.865195876295311,2.6820080160924284,2.3599877672937137,2.181892151909636,1.9976315108632736,3.569190027993066,2.102168663432799,3.3535778253116053,2.340603032528383,3.164940794947778,1.466337804514294,1.7023574243915398,3.3517261997698187,1.982738193845189
3.582057833157185,2.8012244646204105,3.1857574166422964,3.1723301959642725,2.084710547230422,2.5742734510072487,3.4519238252406526,3.0912524855773484,3.341114366386188,2.4392516212512914,4.1478754187828555,2.996108769821557,2.531284286296638,2.9767774463432626,3.6342875158962498,1.7416602071880454,2.1445094020858035,2.5923340202380087,2.895869974120238
3.24084406045284,2.510376751117452,2.887393965345854,1.8758706655514679,2.47969660442181,2.476456663795645,2.8331545690934736,2.9105466301883185,2.5426369725296323,2.5423450433928956,3.5831303634438956,2.7371802129213183,3.1314662475662627,2.9552790454695805,3.2997715065065854,1.9072635039504175,2.385964277773477,3.1311877679166025,2.755979715493058
3.0064573791051385,2.344540454575432,2.7170370522648515,2.793257179878544,2.3901318666867732,2.52282534278015,3.1423848917574104,2.9197724707352495,2.5507957536917827,2.510664570930998,3.841401416741296,2.4537415619087373,2.5011266197365853,2.9918101153605705,3.4484472986897874,1.9993671494913416,2.4991220330102686,3.160397728860504,2.6644932781363204
2.922775008690311,2.9677144227256425,2.8441319483471363,2.6607031988522216,2.652351084544633,2.898338619151479,3.1811463357142977,2.752370408863642,2.426957545905532,2.314423210848618,3.9565977892744373,3.030541196996382,2.947638142514503,3.361155150596271,3.4149665642903466,1.7787507980515351,2.118523841362239,3.385008371198146,3.0808066043896587
2.5385794655784775,2.2067131090798164,2.2528203552246597,2.1216641241469647,1.9312373269305154,2.412402862168454,2.604565576633836,2.2769845784553775,2.0207486451455487,2.0974479352221724,3.7557257440819685,2.3942909475514935,3.116144678810218,2.921129167112781,2.7724702362880516,1.8761288115407448,2.1294037242325734,3.3561812351022184,2.4953752548323482
3.206495537033338,1.3797916164557953,1.3769009932197258,2.445028516415997,2.5272183745333354,2.8145265185083264,3.0183894280517896,2.420661472167309,1.8585108081922947,1.865070930825454,3.8886011151198794,3.163917014207663,3.27321120316437,2.9850776515069337,2.7980718371371736,1.6173043239313225,1.7972129657049847,3.1519892200209854,2.6351214923439112
2.638593621415031,2.2064449893853832,2.8769528021832116,2.483526453183937,2.1167442721950067,2.381660329781221,3.008899751670601,2.3849514855913725,2.039288317520084,2.337150438369879,3.7993479255755775,2.359689566543892,3.2041576580379516,3.4027255469440347,3.203444419775367,1.6382188574416716,1.8693617967745004,3.3819703500473497,2.4884167731685243
3.0741134953227593,2.161224462262114,2.9413135683339764,2.6548605251194233,2.465259799882281,2.6411821164131886,3.1447776614956657,2.795769679292885,2.2074314593989226,2.4194958773459097,3.7142471783130397,3.085930157627458,3.1743403249508355,3.2020201523628318,2.9143958748963583,1.8667184555293472,1.946584205487102,3.2014433128606083,2.5988696570800043
2.470729585012334,2.401090171931135,3.2420656464489888,2.792430038878285,2.3974993400970113,2.807797499882216,3.475080374278159,2.8449230910335728,2.251944555421223,2.5035431860261617,3.8713788756806133,2.616395737191471,3.509167425967745,3.1048562368837525,3.600414022979529,1.9045789538472906,2.600776393793794,3.7755173193754277,3.148533440656702
3.139177860062407,2.9261770623867256,3.0196434231542955,2.9553114752542666,2.386067712573084,3.0838633357800522,3.2523670408025636,3.117737901698224,2.0608172199860952,1.966064101586871,4.012995898321627,3.4744297726875275,3.204216588694676,3.5775716653452534,2.8025902722761247,1.4758997276574872,2.1855535294215103,3.4237215791862066,3.1845170739485065
2.5988197001227906,2.5682447470849032,2.3578723117463523,2.24969011604569,2.4326661575864326,2.476787742385152,2.501974733636407,3.0349955250172225,2.3975079063600164,2.7088610615777737,3.854764145919279,2.8248850032948916,3.211164207041841,3.062888934494269,3.084926783355239,2.2269593377671275,2.625512898096536,3.295399749221641,2.839747608088947
3.199336345561048,2.9114403817909538,2.899403274465413,2.678743640723047,2.1858189160729795,2.814544542074129,3.205690650193965,3.6080918671324045,2.3349299638910668,2.582513786605653,3.817654581585632,2.837543626061675,3.119767582723715,3.4503093216643372,3.3023467599891405,2.181664718558307,2.5043447201260607,3.3553917358459167,3.427672905709835
3.119896918282593,1.039564586717646,1.243947410514453,1.7323283519157417,2.106750717338873,2.0969000701842164,2.4170938847102583,3.115955798576423,2.140698696274762,2.930351452624366,3.421803070840734,2.794649119373108,3.497446180894364,2.144619850176938,3.476397256643224,2.3188144992863258,2.690590326096564,3.671707115699182,3.2590429632386737
3.3031225066482457,1.261069267886353,1.5899275701079303,1.925067260507838,2.278927904535112,2.686571223858557,3.1712782685087277,2.7934579694683173,2.3995052917998714,2.5296262066214026,4.050086121317131,2.8770969473076025,3.0932982322147393,3.071016515502936,3.5344665079025477,2.150437478453515,2.5563401955413303,3.5376316799482406,2.8330416694841225
3.469311005695212,1.864172280798681,2.2063536377907433,2.9303157764940946,2.389149411103546,2.176430140412495,3.1021696791864217,3.06086229698558,1.9432705463896631,3.0604074479331262,3.619720892464233,2.5543881074597166,3.209957080168143,2.8875965167975064,3.280281950403819,2.073997922434032,2.6667287800879227,3.141390544016355,2.8872472682141166
2.6313716542950814,1.4802542629023028,3.0193277207967135,2.215962123818212,1.908106825362506,2.3100558069561594,3.0108908440165143,2.8715583971363063,2.4677788331002675,2.8855145635178343,3.896388521822833,2.768493669748169,2.773561675035618,2.673420036894031,2.7428092493121703,2.1911090034192955,2.600230222969079,3.2250853014017373,3.216676719236789
2.8018084740685905,2.2639133408615346,2.89952005094446,2.4255776873049713,2.5245362520007126,2.676757700607023,3.068905394507597,3.2585189523025515,2.5133952610733856,2.711512206606145,3.9402460429135027,2.5410260487347354,3.3415573603689417,3.1388366503355676,3.3046099704083285,2.221358480102131,2.4375227954292615,3.2162373150681502,3.3239983930939747
2.5077051377683883,1.881024066945998,2.75011206128084,2.314931399462167,2.1204782740135664,2.865356300814417,3.1521338275086266,3.106996360681285,2.344139307813494,2.8910141932046516,3.931411362958723,2.634727952981153,2.834064464473347,3.5146048640788403,2.5700595495745793,2.265594455875261,2.8472023103521487,3.279901281921244,3.246297296202078
2.859397633070197,2.458377904422468,3.018846689016877,2.4615414830862723,2.305338626613658,2.5271903313875335,3.0952951996012703,3.0320900600666256,3.1820958128217223,3.2310558560669556,3.844141760110579,2.435766335842156,3.1301771014581425,3.396710271227108,3.5577055857753876,2.2968502142551714,2.893474081578476,3.2849517391382377,3.00578827256253
2.8628155820736674,3.0762475594203194,2.9781029771343532,2.775549459170834,2.4350852337715416,2.554336716705417,3.0844111073260208,3.296699398059156,2.9304066402065865,3.401951954522177,3.8677257452176037,2.9398180161844594,3.160688961127264,3.4856360631212113,2.77137774354277,2.220404156328115,3.0106894655493903,3.4527627481184733,3.27346667662643
2.5672343328570038,2.868549999568564,2.621284508304241,2.2751491470632463,2.323114709749465,2.3315800928562807,2.4964629144573998,2.809994358796451,2.4159890887597,2.9877380864228624,3.2776895721907198,2.8105333889249637,3.2597887941351846,3.0080448067482988,3.051873490744117,2.0268433805606993,2.8540533286270597,3.332876109361058,2.8750242833697466
3.354489820502799,1.3128180404346261,1.9479057117007144,2.0757741649379957,2.4695541421829064,2.9879305788445576,3.374331286774013,3.312001652541952,2.818483117192442,3.4056895142339654,3.2781402356824105,2.8691759116738824,3.2339280569334017,3.8547881622073983,3.2978925731949507,2.637989820134502,2.976702884939419,3.6219014648068475,3.9015294636673015
3.0615208163950873,3.144736969083934,2.532665021038943,2.7695448406650134,2.1577967663018427,2.3231302394049913,3.22022249420876,3.0014756971511884,2.187945115654019,3.3364852541433376,3.961545514634857,2.3409404976541293,3.5843321121181217,3.5880891023796844,3.188202629501995,2.1334166229052034,3.025413234363776,3.5998117044363305,2.8388250739907726
2.0137985934547826,2.8173131184447704,2.325664956663584,1.6391155360545269,2.0632827570302306,2.0311861079100266,2.5355410598249373,2.158650717480149,2.2334454523922225,2.584545199530539,3.9298746825324056,1.9186603121985875,3.669764558726009,2.6721795770206684,3.4614832908239284,2.0427081072887283,2.231113505273829,3.4442255514167757,2.421094714843338
2.8958104127880016,3.2326544190999407,1.7420151529239398,2.771267162177702,2.2123166759151838,2.2660377010694557,2.97685600679323,2.818382499972147,2.294728626359421,2.80363615411078,4.009198358271834,2.4065463896593924,3.6063961608771953,3.297567617729323,2.802645666237932,2.2337601334158266,2.5695342441182,3.5440168284563263,2.879219783915332
2.7769641501002913,2.903233000500493,2.2285675622378367,2.746440198440316,2.3233154046438447,2.812124844948255,3.199282868945817,3.0874869020765696,2.5718748038067516,2.8288915420339222,3.997804590296781,3.3799963703356197,3.443057904724796,3.4472609410997963,1.8598263818326968,2.352717778963761,2.986228389852323,3.470442783482352,3.4415235412942105
3.1187549415778077,2.9660079991741437,2.280060888551675,2.7773801102852937,2.3806546125954937,2.752007238065413,2.884799144850623,3.390165987185015,2.7062117353575044,3.331060535044328,3.608543682135201,2.758856769497444,2.805752781630827,3.6717834007750483,2.7454517990725864,2.54380455572924,3.134093225200116,3.199445800540794,2.988652436489969
2.750020340751553,1.3271415745318043,1.6709610347469122,1.672083407421888,2.325447237475031,2.1099524753096475,2.7029011285613045,2.867654999118383,2.540437956909446,3.072305480160738,3.0730085191030283,2.6732346464894343,3.70726807203753,2.957625196908216,2.8440602214675224,2.657476242042725,3.105403643232058,3.602100974970334,3.1676808375384105
3.608951767834288,2.4103932356302145,2.043476272655567,2.3626496667880783,2.559856868683152,2.9516139010925486,3.4585781709585977,3.737685438484828,2.874645763334618,3.770765909503808,3.8317854473110646,3.207045962989618,2.9475201823306425,3.6724325261005557,3.430795516117699,2.7914361395919096,3.2872686800450195,3.2305273761147437,3.5267755805789394
2.9813576394858563,3.6212290758835044,2.17288567174071,3.3923800084867177,2.247816178465198,2.812087967336982,3.4934224059684413,3.4907753794076934,2.431077085600651,2.781069950937317,3.9933276382788585,2.951980020869827,3.3141832675293403,3.8075975722944704,3.556880960455842,2.1476347160495206,2.8619286348776543,3.652776756982795,3.0188027965602333
3.137497064895508,3.1498405933380664,2.3540216790826425,3.1244421101383426,2.3218554594215868,2.43810046184113,2.685960823203355,3.0654022822349076,2.4284406894487947,3.236735889201986,4.047694370293371,2.6856389990887486,3.708363349956992,3.5145344991032084,2.0126585487944815,2.231214481889937,2.4710446160974713,3.520562568950815,2.763244716562351
3.373545234222228,2.9668951135129764,2.743497012201913,3.1724065048600423,2.495267005351065,3.3472258159964237,3.40803855007596,3.2831131715516753,2.5452319171480506,3.015482962817383,3.6709626179504187,3.1922339023137782,3.5955935123108205,3.8920137463689857,2.385345206218491,2.3863469290348807,2.680712669554857,3.534512390268654,3.6487535890935563
3.2214323610248345,2.732346116527105,2.588955280317345,3.306174130445003,3.2939703105035187,3.0299963216124635,2.982122143921142,3.5465096283377497,3.142549043351608,3.5056704504800256,3.8230219623398827,3.1176331610432273,2.5521129529865205,3.6980884986771243,3.41935846690176,2.6649945995153574,3.3356113026348684,3.310283839189563,3.604344383990505
2.7055276296626727,3.2551683648935974,3.3067159003789346,2.2772741506362415,2.393113417827138,2.328174885442489,2.9564700141235423,2.9903229294980522,2.31979518834029,2.8261460700096945,3.961847709682367,2.422674167161568,3.715503742085072,2.831185818941656,2.2535971665918715,2.2641434278108328,2.855430930594417,3.7710508826259,2.714212198152857
3.031519051632148,3.097461623383989,3.2295337774948543,3.3831097141803683,2.195669678773303,2.18818149108,2.7589571323573634,3.0872459032771085,2.3341684453617764,3.0805363353117134,3.952435610730009,2.267310344782142,3.606802268300685,3.419908589702401,2.4644964093163253,2.4801084450266613,2.771871670233253,3.5249323296514814,2.778487725792546
3.2642198675894307,3.0750729660901834,2.8920732904432023,3.058892609587385,2.2224885199104807,2.50211531546694,2.9857504294281063,3.517192671141962,2.6017976143652524,2.993912135179211,3.8621927130391094,2.6017241672057025,3.305394827181109,3.482911469293255,3.607108156501787,2.6830293037437256,2.729367676984528,3.23748445314427,2.8129651359809875
3.2385282617144973,3.149955646913842,3.202573581704014,3.4010898575320843,2.5762733159715494,2.777523671685969,3.1899426108666122,3.2335926005299136,2.670143712667468,3.478302015831556,4.0036746386790005,2.732985397531761,3.723519008859937,3.668715817020685,3.023335765639821,2.240174510179125,2.97809733934299,3.4794068527418065,3.5940922850319272
2.854597560498069,3.1004920122139747,2.906995061121162,2.8814736290395464,2.658407835166478,3.150719688144937,2.861014965018243,3.586093176387608,2.716670594988325,3.2648944821696557,3.7710681030994877,3.5766298420824842,3.1764551728547286,3.6855295523770537,2.9546289956676137,2.134466400276847,3.4158952516632706,3.2257982285312337,3.4624684616127737
2.7998411775723935,2.782243832093662,2.720477327460136,2.585392627812108,2.1014146038039128,2.4226467523595607,3.158477389180314,3.084576373891144,2.3837883285980004,3.335129195166086,3.763366987596653,3.0900941601460867,3.4139857081817446,3.4513062346833197,2.3158504260478256,2.6783255932942347,3.3125029343597956,3.3080766155924244,3.151393649710678
2.766661853877419,3.0185309703082854,2.674608617822577,3.083222663558626,2.0173092103240053,2.1646811703557023,3.1262226864628544,3.425510886813164,2.020842678338528,3.3295794724059475,3.9009711777022114,2.260819723677,3.369168059128173,3.763571706738566,2.4481874322485577,2.2382484968079344,2.8289562972556617,3.345249402092186,3.258489140287524
2.88081585103017,2.675905346667346,2.770418634903258,3.4026116304382605,2.6833502705491834,2.68461927134984,3.310814516633775,3.2662080617870703,2.6499942433516126,3.231379776208271,3.931161101652029,2.2531671847747003,3.5280808351303237,3.8844823985237444,3.753932412151035,2.558262244332991,3.0015005397310643,3.525919008338684,3.1004689351359267
2.4923540063110217,2.4725951674522744,2.1943357127012053,1.884523860741008,2.790091564203965,2.5993352086102623,2.6308640597238777,2.7405635079221136,2.947222022749875,3.229237611585044,3.1849732558128783,3.099538938359511,3.5364273580816494,3.055093575048365,3.1974379567841136,2.628119699662291,2.863646981716076,3.708132990149682,3.161172382041555
3.4585961853424405,2.5381048120074055,2.6539375913012426,3.1589632965588184,2.6259815420196104,2.609800556531382,2.8945877817901198,3.292791287817571,2.694934213662642,3.194949682309742,3.835627540654063,2.8456571156598294,3.5400483867807053,3.436920652343724,3.4784193928090343,2.5847103546679513,2.961131022714968,3.5452195880430333,2.680956546604443
3.4265855603940514,3.3506829741255175,2.92322813578715,3.2505434648310554,2.372896149117604,2.9280880023810503,3.3796915132392162,3.7256123684311735,2.6808484005765063,3.7982805871221217,3.7598710061527294,3.5635003791113307,3.369426923267817,3.8499245714163908,3.484580210004592,3.0700810667811607,2.95747642508479,3.497878587328268,3.5703288058976694
3.489941056704518,2.972453314846555,1.5486101133353891,2.068619192383391,2.6125702639995962,2.8033008001114212,3.345474216043908,3.260435826207116,2.8911603801140737,3.8371031566857003,3.2674536329674684,3.1884295798393825,3.4834978029182486,3.5891617598983205,3.307983792120198,2.8730470332215146,3.2314449802997633,3.6188282460640306,3.6556364219124027
3.6951855004954983,2.659888299448697,2.6608689827370746,3.3020626769010293,2.3598484175842143,2.9586737529433593,3.175488142667003,3.663323406974075,2.9828425453270864,3.5089035776396518,3.7966807716326096,2.6003649456731797,3.456567869507764,3.573821210979439,3.2300544356393153,2.896560919362917,3.1855471195733025,3.5650081725849296,2.9650187813736837
3.7498873617682853,3.290357647058461,2.7908637064727375,3.2321064001706015,2.8873172339040623,3.2000519734809623,3.3536934515683647,3.769198379333909,3.332117458101517,3.8472090588606487,3.8166549758840285,3.3566809262722472,3.3872181033392277,3.9460072668016144,3.4296554142024465,3.5118654095137987,3.6033985217372178,3.3980444377487817,3.4833979595352345
3.050639905791146,2.1912888499050935,2.5879261937560276,3.0910864662777304,2.3139080587449934,2.270043709232212,2.6500925483665556,3.3931857008259274,2.4821284346421395,3.3866116970507103,3.979424178508768,2.235453645215617,3.7103689256285057,3.2477175403022187,3.4928605733156695,2.4961807126204216,3.2510150579940618,3.5398994128166987,3.1066926012747853
3.1484906977854523,2.7876398176388664,2.6163614320354998,3.5173720529368446,2.0659533616145005,2.6674113959819667,3.292338477921863,3.408024160438085,3.1530611968578577,3.345005250497802,3.90202558046605,3.536425725274089,3.300416219718044,3.4220067792911943,3.3744184649332705,2.8974548358732175,3.343285354954812,3.7061435899582125,3.090191003290214
1.1079883924732818,2.4670154751560833,2.5216626332720575,3.089625833460934,1.2805532735981435,2.5493269826733878,2.9151302379466246,3.405133250863182,2.4988191671351503,3.3633446013248114,3.350252160264448,2.0779569688800428,3.6313407570673335,3.1528287546201095,3.2034784371279095,2.5927310533469834,3.0625845991477307,3.53397994783991,2.6092611329666364
2.7591991487007506,3.072284678727833,2.3447212326353046,3.4450451958153705,3.208930909448513,2.390197627889865,3.2386771906757272,3.5467835730585513,2.617191279914165,3.567004921822394,3.986854357060479,2.95902866956692,3.6193988758858695,3.747241258225497,3.319390534284746,2.332825684272897,3.4216662273029366,3.6839780726150395,3.02295677874887
3.1742016722659163,3.267801267293901,2.475067967010967,3.120335515075409,2.8304502091514214,2.9458776949951244,3.4657666898819333,2.6354913196216674,2.5830474225275895,3.2509032352996132,3.96467397768788,2.8351084191058504,3.746546150868198,3.7730974869286187,2.4643182786078355,2.595867938255583,2.8959686237498783,3.6134454066456088,3.4311309550661715
3.535448919078586,3.29408855880772,3.004497013378254,3.13495518417516,3.1467969446590067,3.268053315206126,3.2824618845744697,3.6747928347604373,3.340168435240097,3.6929271269408397,3.5408384071227696,3.096008948963202,3.1801019275218434,3.804090990152303,2.092111407100583,3.228124533507477,3.4907957030016945,3.3260914777251047,3.4879180442358484
2.037293431038631,2.6003482839386676,1.9110292691454454,1.2214761760929906,2.422044605048519,2.5426253098514846,2.8412787034920455,2.5111005007942366,2.383205160661828,3.036017161084489,3.2702819142206225,2.5470939208462844,3.204626009305568,3.1298505854480467,3.311637959029352,2.399597892042072,2.4964489181482823,3.0909511543972257,2.9205316164536566
3.785725907723081,3.5018612847330766,3.470441655020826,3.6027842612362275,2.541744302179814,3.619458973174184,3.1244866039852726,3.8764206851159226,2.908392987848101,3.9355400695868825,3.9715295634446193,3.019479742668261,3.5909673958957913,4.005731192563062,3.5914404892485776,2.535875808287896,3.094477160984826,3.605677768567548,3.8246371788592075
2.7427212877135343,2.231700672283665,2.0488878968184747,2.81259347510811,2.1153731417703883,2.326579783667849,3.0553438454628568,3.2841657560047723,2.2883260783195314,3.194247979578079,3.815024272724585,2.8743204822370227,3.6204749630484656,3.598630901732823,2.992956986017226,2.3748609935939196,3.3342132293581366,3.2927199392900603,3.000496344439248
3.5656651182243673,3.3079948367073007,3.3064252671328886,3.3197883862509245,3.305143545282928,3.6458358656989343,3.5280660605123733,3.8921118068831277,3.076774066935219,3.6100816336250716,3.6868579468267364,2.7913784033332503,3.622175770007166,3.9552160817817805,3.7404102963482484,2.847982936489248,3.4501932883791833,3.8505320351622676,3.8840997812995552
2.368981886362637,1.5669247434762108,2.0620172863851254,1.9729415840105862,3.0150004631457303,2.5510946395408935,2.7902220414788768,3.0636938699669494,3.669819427618021,3.7579715282592936,3.7070841868444315,3.328905115196716,3.276643846434101,3.6724219191496132,3.0457463137584244,3.1815572227646043,3.6727992799378097,3.2042125108489614,3.575589068578121
3.9342918761412484,2.4876466159507693,2.337543262045168,3.007633898118499,2.1918040202777926,2.326372697910553,2.659943119293381,3.232789915753503,2.2249526220098903,3.580865958926243,3.9350831718917885,2.183136892197853,3.7495233286078924,3.552428332648802,2.8345536796324775,2.318858650092196,3.1295760005250806,3.7159348741561584,2.806676791347717
3.8553473172405,2.9316344540477086,2.567485686685293,3.4233601049627413,2.3288081915871004,2.9081381576427296,3.5809708906056907,3.7048310216434692,2.8979226713798,3.7108538764528105,3.922131770751343,3.503603915330499,3.5343476861455607,3.906480634135473,2.868646160758471,2.7443530933629128,3.090704506602444,3.6485166349491562,3.2446144830412083
3.60627346404049,3.114454373227889,2.3439205924641744,3.1195846723966216,2.6164468912009236,2.8529987889542663,3.1177680931592735,3.337001103649403,2.4409445376857337,3.5062349013626766,3.9982855208263905,2.125626358922582,3.7421486534486363,3.470804396284545,3.753928486233172,2.464399191782679,3.1671885170394245,3.5278556875447555,3.013614203722602
3.0916029225001354,2.8458267459784565,2.166154292861676,2.840137973406605,2.4257841108049996,2.9257185818674105,3.145198376082557,3.4372709189845794,2.703911883342687,3.37760873689295,3.7015142432662413,3.4378543522303664,3.5959886348030876,3.5857910000041295,1.7191901348004919,3.083726409719054,3.2110974953174574,3.173310739402296,3.217618886937833
3.518696372704214,3.221703881768666,2.4795996334200443,2.714354188079146,2.9627403893529674,3.1683531215099885,3.2430736504965845,3.5972254562607557,2.990712722893104,3.7018648386741457,4.0224796409963925,3.511552988258999,3.5126772929444945,3.750213178094967,3.0139167141808874,2.6592892512689454,3.629652593069029,3.465926642339891,3.224331982783076
3.4954697369708803,3.0739369087297117,2.834615260406881,3.0182380688058577,2.9245712014073026,2.9665626900541695,3.2444257789989845,3.5241109762798284,2.8931249177280316,3.412186633066723,3.8492470962466196,2.784096784459531,3.5079716603623887,3.628417394951642,3.0851053992085693,2.780639207580762,3.2879985199344057,3.2559656281675697,3.2915452309522646
3.3938655897554684,2.518246863277732,2.008132261584112,3.463370211324949,2.1854267274280685,2.8652362152225774,3.3432614792403372,3.324692218966863,2.271114182246007,3.579707933392566,4.101722322803668,2.5962998951101763,3.773605044885635,3.8912989840546897,1.3525456800034215,2.3445056449677764,3.0727457181239446,3.78471321935715,3.6140444164691368
3.302434409667406,3.025084144197342,2.6689537753808126,3.052260250655262,2.265997808495376,2.949661378537766,3.0731098599161877,3.5282627998460576,2.3735568910052303,3.6234352245645547,3.708186285797817,2.991587209226955,3.771064339137055,3.4699852140230227,1.3737875999645799,2.434369874893132,2.8764676494222154,3.645492782235897,3.039414955806556
2.6200910083194637,2.5145997593081546,1.8761878605590008,3.4401596460905917,2.6639746595987708,2.926258031582892,3.624365207533494,3.452880922584349,2.793743765200328,3.8385092724547563,3.706592695941828,2.994758111925949,3.8719399928256886,3.3122645490734883,2.189239965014886,2.9245891768937575,3.354353059914579,3.8789828445622834,3.1712936433555794
2.499628781167761,2.2481575925306183,2.151044593963142,1.5391279763624846,2.795188885118226,2.5258257046456016,3.2492040421977437,2.186635060045427,2.909729073183754,3.5876368541778003,3.853358332998025,2.66357168701533,3.7780714737935113,3.333954728046133,2.5265217227662493,2.4934332036391083,3.190222238087802,3.5973001217412657,3.2213284133665856
3.8531755679622393,3.0870863139278373,2.5820152904257307,3.599624888796384,3.0289435496050787,3.4538156276936696,3.631459142439602,3.9387879306446396,2.822361560231001,3.7953985241415293,4.078945427448755,3.4167037559192717,3.9709991262713578,4.024142176714906,3.326349442360344,2.4168241508491586,3.477626116809045,3.8763459513453995,3.445929443027137
3.4464629189342335,3.337741667338803,2.8358398307284176,3.519982319227863,2.8559730951292055,3.23404571692451,3.257380719990691,3.685581902397213,3.5145923135376376,3.85074053653596,3.846169222807306,3.434377213192725,3.508788833408177,3.8480092535407326,2.9240183620493316,3.2803045433477176,3.679947173833203,3.69963917693776,3.8050494238876076
3.871903158147031,3.266984315185402,2.3325206479284204,3.366778758109491,2.5078663110721067,3.284681503006974,3.3106484883980545,3.8469976634624414,2.8602472346744237,3.960626521704808,4.161741066141809,3.3432689738082,3.8323987933879313,4.146904500984016,2.4088205112399086,2.89349518962157,3.273814734113548,3.851295009774388,3.5646931610526984
2.997205802612897,3.063648791659453,2.5288452045027543,3.1224719114278714,2.893986577001429,2.985199569672578,3.2576253698308375,3.2687786705577513,2.550687038630907,2.984136122328313,3.876697808356049,2.7502285647456763,3.4088319215397953,3.4451077692215493,2.102374618106058,2.627977672616947,3.4521536085194042,3.3695685980640566,3.1133600949695195
2.8457849539188045,2.7851814897420404,1.6716342590560371,2.8029826153150603,2.0902499600375415,2.583589739522897,3.3427338582123136,3.2691568417181975,2.227542842512751,3.4177481299749837,3.946864516518541,2.7268098803332164,3.7657157097353666,3.7881602768818565,3.2672749754196464,2.66296355191596,3.1466363676867486,3.428117701498618,2.6824826534842163
3.321217236940372,2.7943219713369056,2.3596003715642384,3.288761223698021,2.660085085543619,3.13224300637982,3.1618846248450447,3.5274180437968297,2.520856829271798,3.4978735148846067,3.957924337848349,2.478445730680108,3.501865992957537,3.7107449952093137,2.5949926866465627,2.2288917289033274,2.7167822918076263,3.54275477662276,2.9390284885067013
3.643893321336879,3.098965744362742,2.1866936738578673,3.1818919844736016,2.6358718244095924,3.0207195586890734,3.1757004244331197,3.571235289783639,2.901022303002661,3.5887913904449995,4.027566495900192,3.1951796340568963,3.421722022273981,3.939338089286077,2.1443656587314117,3.2119149163942464,3.547888609474716,3.4871644015149506,3.2389116120368917
2.711193332001983,2.416673408447883,2.3012289933963386,2.6302774343119073,2.504474650170736,2.181439049948026,2.540448912791142,2.9677113077998154,2.478723847062012,2.9268666390930957,2.960730410506977,2.657637452824061,2.8655093462131047,3.2324495289807627,2.9503825295442456,2.9015963010134618,2.878863877806115,2.914815121908587,2.8890958729607084
2.7932654382306286,1.296053980692972,2.466596914475392,1.6034164707232827,2.392091626592327,2.7322880257088933,3.0861105546428975,3.03357861798985,2.516616128659859,3.5214171863095034,3.8579535475098563,2.0570719597483706,3.8080379692840105,3.71878768592914,1.1848549982428676,2.279703914150309,3.511158085577507,3.718726541727319,3.425906298354267
3.395059046427899,2.6221757219949944,3.0231749833956445,1.8574887560233762,2.76781274762092,3.3623111443472795,3.5615322069257056,3.4514386575607627,2.87460623499286,3.0918656014858326,3.803402425157934,3.1451309162028114,3.7147272357066656,3.838618749538033,2.1169680011916743,2.5017981333267842,2.850007736235477,3.5108757347473394,3.3622658414478606
3.6817917444901496,3.222813240905838,3.3864788923480003,2.7035453558431755,2.6956950344704715,2.7104227786386166,2.9020535268493215,3.834637950769184,2.733514092373352,4.0157711797214155,4.035594054518983,3.35775654610755,3.824333402693658,3.608518161052178,3.552285722457973,3.2408316436401603,3.908866787923771,3.6321071974579495,3.290479993175195
3.6645178722283975,3.5422507456304912,3.315625225276843,3.4338806347226756,2.9658553931758123,3.0417313849266168,3.2847437427118353,3.739406820441225,3.0205685074401543,3.8130003851111307,3.8754522977400176,3.5061471024680464,3.4773556562057473,3.8566127410998328,2.8095474162684826,3.485654204966219,3.433609950226543,3.5411996709092053,3.714862603646427
3.1134691503914556,3.5477300123506,3.1323986901737637,2.3925496420163523,3.2324587999671035,3.50429778699717,3.504573102056624,3.5001198008582706,3.135924132494717,3.7712742023107144,3.8452807896532346,2.6680409025051617,3.596153271873649,3.7420849903316364,3.1340404098799883,3.306764377467028,3.465212651364663,3.5600666408412125,3.625792765824324
3.428099055219442,3.304730657940264,2.574345694894977,3.2292989795809652,2.8829455789574117,3.1346766631188006,3.425820632288194,3.42672702143102,2.7765526911502607,3.5725864362548827,3.856456846285553,2.9887082620809955,2.9611330933372706,3.8494827725739866,3.48976852505977,2.849695578692169,3.27741461061596,3.461782923896674,3.5661007241704583
3.9073505008384286,3.3960349426066423,3.1817903051314813,3.553789938017638,3.0349873373692065,3.3069759935362275,3.2578315315482835,3.8263356280360545,3.293582374379954,3.6600054929469437,3.9407612890727193,3.489956720885474,3.5051342259678884,4.040911146923557,2.6620521593295874,3.4763525274199365,3.64953051148762,3.3351955843748926,3.8442316012553395
2.820982780420664,2.921251960093859,2.633505020568846,2.6030047559992413,2.3661713146400816,2.870227143157724,3.0054901151185973,2.909574761573904,2.7746061083282365,3.0924534656855838,3.378316838616504,2.658800085932801,3.6208995801296746,3.169626877322184,2.708842152666188,2.7924997026053044,3.295956860525159,3.1238005605527936,2.972054205783829
3.7082742147583785,3.3514054993592834,3.523904707118486,2.3296875690824557,2.703214470350692,3.3833231565319863,3.4818825460096523,3.951916811207761,3.4478183964478633,3.8280473373747266,3.968701151987384,3.100067705827218,3.6876842653562516,3.985932582716048,3.206384624191582,3.237316083162798,3.6822668043266886,3.8273631670674555,3.5378132278351035
3.561564185370335,3.437377531628576,3.098160603996001,2.857704873482727,2.5764247990977975,3.2804394376512636,3.597098505027766,3.3159213121315143,3.1495163413897482,3.785966463856682,4.105834863862648,3.4029816235556813,3.3892598498582243,4.048728602008425,3.646631375900894,3.396248654879057,3.4765562837552393,3.1582363068319728,3.79568439555897
3.752746001383398,3.288610890558728,3.211582183386885,3.115874141369388,2.902757961340496,3.189465841733809,3.491101833738322,3.767754146562452,3.055819039524427,3.6455946208311465,3.6504535696674014,3.36007935308877,3.3675149236648476,3.877019992162636,3.062532210679232,3.4214094608694894,3.563023762246813,3.522330266242809,3.293782670541034
3.7503555462725813,2.954361954661681,3.1957408636132003,3.307865559850292,2.692959311734073,3.0480884929688394,3.3329957242438386,3.751965927691396,2.9289344512735953,3.755172212667918,3.857305674930682,3.432784598885212,3.5425799730485616,3.985259605445906,3.123796817130135,3.3302816121095544,3.5311116772581013,3.2987487772314195,3.2598263318389815
3.7060845802747386,3.138725393249984,2.5673640771740773,3.0892236180596773,2.788137870428159,2.871575553833774,3.157362582684421,3.5891976790343265,2.730932692418873,3.5811489772010168,3.8502251440640625,3.016186372044534,3.6616469774480342,3.7357584558242944,3.6133201528878804,2.4452472439519353,3.452916814026111,3.4611206132870724,3.348235704563556
2.963134701201115,3.0253117902627116,2.899753786508224,2.5873349619953214,3.1113250890902164,2.9934453574288775,2.951621039789194,3.0844610089667888,2.6392366234620153,3.773325761842177,4.015496667435606,2.709356039103209,3.899838309539106,3.503491858742424,3.6574479585689232,3.26458311062554,3.3656584889088053,3.672447359048391,3.05603137943353
3.6655246551494836,3.5879685039216813,3.485624122950106,2.7066847385846495,2.61653426849219,3.5230218001883506,3.586855146214175,3.545850210565386,3.047793597559403,3.6957077922443538,3.8760851439075807,3.50144937613936,3.736637175046947,3.9060754012948196,3.604202738563156,3.3501321112868094,3.655747524561954,3.7019356901741127,3.786432829743736
3.2581088120637665,2.772379352037037,2.7065276165500696,2.8109329814383988,2.489099489990111,2.8801949666155227,3.1749424678189473,3.6295803670168,2.435830050301424,3.457969188235631,3.978828770032704,3.6431691569846585,3.5833119915772067,3.6909436488743075,3.1358717206469287,3.4110915997437137,3.61206480165854,3.4304768809440813,2.977803326208042
2.200360363008648,1.7332223846901773,2.8767938582263968,1.547836189277366,2.839209840714333,2.7627142392071073,2.8662882275862573,1.8384738320393261,2.463811310796324,3.1114417856339056,2.6826057398127703,2.4860336019849627,3.67719595007102,2.2376238699864635,3.427017313564769,2.267054074403845,2.9493301451684637,3.4303763317280884,2.847704481227062
3.750207788885934,3.522385029356838,2.271200651326787,2.6081008173141758,2.626991321422625,3.087639048295071,3.178403831731163,3.712696077629672,2.856948307485737,3.6990353821913016,3.820791166163596,2.2483297604167483,3.6212852876859145,3.847075153857376,2.1719273923072193,2.8175575484765174,3.154692289620238,3.56046168004605,3.398291899676674
3.4374452932851605,3.21025166145669,3.1865883710964122,3.2752500921915453,2.8679314052293834,2.6415135298482535,2.9014699327156452,3.5905836482521467,2.856374543901733,3.3296709425518274,3.6270694216749897,3.0745334794836547,3.36172191190909,3.778747501350852,2.0901640223212636,3.2296924736028996,3.3249220236292905,3.361137410070452,3.406105713622091
3.734791229268222,3.2564379317634407,1.8478884747083821,3.443912068143238,2.6541145415101384,3.1773805189643145,3.1761001087513745,3.646043323025599,3.050052750440402,3.756599555941955,3.7332377592462223,3.3650426586776137,3.5316892434355798,3.667457992421956,2.222010542581474,3.358753535257112,3.397654378870774,3.557250831758611,3.756955830950135
2.427071169886254,3.0487419991127305,1.865308536121533,2.3989938137388473,2.644017231128477,2.933294534947659,3.0716613408080238,2.6886212316051594,2.9979665469022208,3.8612518051830014,3.9801071148996168,2.9269066176092693,3.832677941394078,3.1968427787665545,1.9068186352154983,3.3822606076791493,3.94590676275909,3.558018955565583,3.67318128619045
3.277683525535092,3.276794699103317,2.83656108267568,2.3465454014025102,3.3152671306546795,3.2038792709775237,3.2093710790831005,3.5157912293133333,3.144824226058544,3.5765784547303285,3.655167197100029,3.317332508743288,3.4853205483866874,3.868159009423926,2.7664689165063785,3.551412244906924,3.6123667819497634,3.1965105649502603,3.8017613758698245
3.6305678826801873,3.302427585190893,2.889789804511907,3.1075072364423098,3.321078407767147,3.2987434819824126,3.1233806194621456,3.6330982254259885,3.498213365739529,3.805671742800511,3.806274841842093,3.6746074214189237,3.5860812397202326,3.7741694232921943,2.874707425599218,3.2875009516857583,3.868507646821335,3.4401426564950977,3.6049795452092486
3.57378761605439,3.163965092022784,2.381769671444411,3.2573157351243243,3.3065947585448443,3.3119779881490468,3.448485819171707,3.6428481477145827,3.2421862357493163,3.5464406816983693,3.6927682638161836,3.577328056440796,3.7122262570437528,3.8226912232533756,2.9017649990717853,3.6097649564183696,3.577885686288023,3.571407059239169,3.571294306507201
3.5944894304706194,3.401859363345406,2.900125036047951,3.1733455065893046,3.2396104540029738,3.3485728719078915,3.1496142678814345,3.5717287686055057,3.1983243587318553,3.734483173393307,3.8980594801516095,3.4605527104776974,3.3887766653914815,3.727619641045065,2.9581534559209097,3.1733201275794443,3.5518079751407776,3.2229601728375656,3.557828379134485
3.355171020347635,2.9104026482999594,1.9242446707392704,2.8871489127197907,2.524737874399019,2.9856767252984087,3.4214365174836137,3.78753576409543,2.780198579199792,3.894928057056182,4.03794658061547,3.6053772814323897,3.8894694997762507,3.997000336971606,1.9731705827235428,2.356405329912952,3.63089381329439,3.5819499751814003,3.4997197599920318
3.5079630644143527,2.4802352168985085,2.2215036376395396,3.1389345038635996,2.909324501480393,2.8712962060998737,3.012047045849509,3.645609581039535,2.9409970082653007,3.7775261502868256,3.927435022119108,3.463835693493932,3.6761078079900633,3.894404163831484,3.1163479199061204,3.1245909360070487,3.6379154169423873,3.5640526518909663,3.630318311767822
3.708870332210326,3.513346674078737,2.601526583582108,3.5733670997274216,3.0760144472067816,3.558833991064805,3.6482299364143373,3.4295705430734245,3.0180221930699807,3.6758866469592717,3.961731826254981,3.0107535545275517,3.7146500893347048,3.8475296735974256,2.729726853829864,2.4181911773181315,2.7932439492090673,3.379115190923525,3.911103612872496
3.720759047927691,3.35902101640826,2.4623034305403984,3.6255643382711167,3.0444063341569,3.5324912846759626,3.5833607399141383,3.8439315082208596,3.2509649025178033,3.7159460842193455,3.880260366691769,3.013265228260083,3.6164992433751104,3.9705860840881573,2.605638070235912,2.7639624387336235,3.718240174292048,3.5646502040309045,3.8550661108815745
3.7991333371819884,3.5077545952211815,2.6793969738459937,3.514622979269489,3.1055785155108935,3.0527221465071865,3.2058407377082156,3.839472459350529,3.0323706648956654,3.9073326097492265,4.027218663828618,3.6152663785529002,3.6474264209109184,3.9925940745920308,3.451081734268058,3.6167259020310136,3.9221626588802034,3.5850327167650597,3.6747017318613047
3.0105546920261324,3.204400363962732,2.4854283336180374,2.1443150606831773,2.9427173268696283,3.2167406648295667,3.292662558630435,3.3278454354668257,2.9202319516232387,3.8202601595469257,3.981038059727032,3.366569418773803,3.7727605197594243,3.915711691893288,3.7153637948199045,3.399562152903765,3.651113074738087,3.734309739476147,3.5587799582827335
3.234810975273287,3.032569822387691,2.5485842644856835,2.931175684328585,2.243676230738458,2.9952571406376904,3.225672884425044,3.4448976151172244,3.067778039504687,3.3595792553769703,3.9567638761901307,3.076134451758034,3.2756026786115933,3.690365621406751,3.2912880317967774,3.481575070463518,3.583713074033342,3.2804399914824804,3.5406294197334396
3.6239661659506974,3.4334867088445002,2.3442376357150634,3.3643812486258584,3.3112434987606894,3.3586761678273667,3.186387584013715,3.4888733084433223,3.1824277674287598,3.4709859790803543,3.621401146727155,3.437529683915524,3.3327169360793354,3.594742400211078,3.311179777818409,3.144880742691123,3.5299702959529355,3.201794221636573,3.6430736996898156
2.754072228309535,2.115984197885235,1.97845842355934,3.1567427920684383,2.526116427262124,2.725207739097533,2.99353338005218,3.2969908362893294,2.725930744398772,3.723561543301284,3.991436359820949,2.36870578779008,3.69884955737846,3.7150661290055087,2.84527593464008,3.195315481271767,3.5568716956673305,3.364185295385403,3.6346653803257443
3.946346671647185,3.302173809011359,3.080364655526467,3.410039502313401,3.4506959248473703,3.2621118317491047,3.1403066770743173,3.6917702336344376,3.4175261276852598,3.789272357960593,3.9104888420045487,3.199785025545975,3.266079851121242,3.9095188486074464,2.8385456827279354,3.672468901436764,3.7583506036402348,3.4263703200384468,3.690195668374834
3.6969800755462905,3.3251662872013785,3.0952685299225995,3.2164009194761602,3.490581612321014,3.1705134297503057,3.1180301265942356,3.6437781191865293,3.2794971933194805,3.764432520174904,4.013268246155526,3.2274430552218085,3.5336359782842854,3.667180824259762,3.549354328176507,3.5561915894487894,3.6546416932924295,3.52826489465349,3.7642936618783436
3.4300983789552006,2.202572946604393,1.8711491729729155,3.1847941899071883,2.1911152833182195,2.275588435971578,2.4834945042780165,3.556316094801952,2.8829223222520466,3.915237513439359,3.867785355535745,2.649434994053119,3.7866533150338144,3.9837559959332816,2.882315725220867,3.0447568438512502,3.237716970009861,3.6058755360799952,3.567787333636634
3.579011286866523,3.3875572393364584,2.6852094243070805,3.4330222862334088,3.093990491973297,3.340454595497369,3.6525893594333096,3.602087041353294,3.169753642683953,3.871522109198418,4.12048291727576,3.599152154600219,3.6952391594445304,4.025359879602081,3.1100092018483516,3.668519376612793,3.823996579548688,3.338361947633051,3.8114646816766524
3.9078617813602965,3.4766825351180928,3.28756171469524,3.4188187562095327,3.002151458477025,3.426477186465523,3.0010630800401747,3.795977782754374,3.394080945522741,3.8073463463166406,3.8663492389719147,3.7853586163968127,3.5882407891132995,3.9495786747451436,3.522393290715463,3.7398584583010703,3.6459405798166884,3.5630294741375916,3.7168997714357452
3.6436473688000706,3.472599313337714,3.2034999905263413,3.2834286399795647,2.994649326504155,3.6166800054802497,3.3514426615680493,3.6417271650138945,3.2180753705657716,3.775037236696878,4.002864132537808,3.65452437152161,3.660357890353333,3.895674666719703,3.664492049223612,3.017482974752671,3.3229150054906227,3.4875212200693473,3.8901987518440877
3.7354278264990692,3.2746132673530037,2.9024658273823722,3.504197068480954,3.358462406150478,3.348420674872632,3.3636390225445236,3.8231660336108195,3.259093798802916,3.821766348378575,4.023281231183259,3.202055446162374,3.619197221245495,3.9805976125837885,3.042662164654635,3.370827039368077,3.878273207284158,3.549458672464404,3.8038458689805457
3.480337221506945,3.366414691502121,2.3767267386920627,3.021634451391179,2.637718419402965,3.4466609767670455,3.5846680984006776,3.8838761037145657,3.312724039393584,3.9740876440823825,3.9761825422638077,3.4931771538360716,3.919182562649816,3.833513677081835,3.849872756732106,3.4262114225705376,3.899509071562425,3.691639167161809,3.7572634567155387
3.811825867425049,3.494315316814639,3.381095013775223,3.5468662337806443,3.6394503857760188,3.5971809551960843,3.455406406218949,3.8456933738832153,3.4134632343719327,3.8309075354148074,3.92422878787237,2.6851501135950153,3.4791506881963126,3.8683523257893073,3.5161011937387125,3.6161802010298367,3.7681277956859502,3.2235902161185885,3.811571268304736
2.385579876116724,2.2197263105378098,1.8039267747094976,1.701462743435101,3.035374363007387,2.6458136368867318,2.5786862868974527,3.050301133985356,2.4232025293609483,3.4590447151008386,3.574791426070933,2.809059517216359,3.5470908110077675,2.530790695904447,3.3187872270645293,2.5955233517959453,3.2018995188164694,3.4172121704543765,2.78885929685073
3.9692821735678017,3.4447843351289045,2.7234288137684812,3.3618660158200657,3.0736293550470553,3.4331629831919908,3.832406616287234,3.9789705165495417,3.3295384820519924,4.042775387353557,4.132224184523817,3.7792424655064885,3.9448323582386142,4.096207695563489,3.5384091470420564,3.330672082401768,3.998385020409144,3.756944460644153,3.8852568565996908
3.7782013511947876,3.5626159847501713,3.4220259528427848,3.502910075592472,2.9607223132819707,3.0399295178250347,3.375007224629512,3.7090126450620677,2.9259370734097327,3.485079647595647,4.174124615291698,2.6031302452790985,3.7370889158683314,3.8589803497195856,3.119299788118667,3.62421422220565,3.4229889501024435,3.6431604302825424,3.639062079247838
3.3999015900265106,3.4360328797757096,3.4395667375294168,3.624600939184553,3.540632070625361,3.582621279675376,3.431015203291383,3.1922117975114643,3.7281075046925243,3.9381016747324233,3.8818383801285026,3.0746805778361956,3.4324808969834266,3.925539876765253,3.2375568960443593,4.00091894109988,3.8717506619846516,3.0597766337981325,3.529701026320975
3.208145942660297,3.5102462795827294,2.38910628432736,3.390001717616476,3.708255368817801,3.417067845339961,3.270176418560525,3.667935769820269,3.0284431145425876,3.7111106736875423,3.8130455251700113,3.3922512994354697,3.5643735976176703,3.8226309471734936,3.276719564162767,3.175797037369572,3.619322737095128,3.504704709560272,3.713708393118305
3.6457504565649517,3.2645592351822326,2.502434917206614,3.5202769532760274,3.3400768814776587,3.220979923596465,3.0337003683930672,3.5630676722956687,3.400457932529677,3.8167580782423327,3.8981032021619115,3.5853753682543124,3.479426255597659,3.9166697741655963,3.000843648604426,3.585209348821071,3.796636662557795,3.4785758012356425,3.776596807651229
3.6759664495745086,3.3454415288804533,3.2667784799406863,3.7030086937682354,2.400053774181754,3.540627867675777,3.1495977119965706,3.6717635671578353,3.1610748795606276,3.793256650572504,3.7371369918011346,3.2655855346038756,3.749830244264446,3.995251167123415,3.2758928759006416,3.152020398045805,3.640860715240116,3.7740146597244326,3.562816391581846
3.786020178685408,3.3615864937194964,3.2079012642732225,3.5638932414874684,3.729529018905629,3.6267320064330697,3.572704752865867,3.8583421080802514,3.3808166236484367,3.921450164164638,3.805862192765745,3.4393575049794154,3.651088562401237,3.9625492472407227,3.2301131317810787,3.870570654305536,3.7465038250016103,3.3753761089209724,3.799257416599918
3.5026321415166706,3.0779091119823585,3.3969648301304836,3.6162964788632643,3.5706080220482748,3.4241022609836596,3.700145055848526,3.767678490676166,3.526363795978688,3.6548706799820145,3.6826155449281894,3.5697746393027354,3.5353725007021106,4.029802253132712,3.78279201436452,3.690024252881756,3.6210058568053585,3.510796470905053,3.854930726026052
3.51114506857633,3.2736584667441013,2.994156123973834,3.2730946676273796,3.442521093433116,3.2297591496455498,3.109284808041279,3.614739588111815,3.0952250126374077,3.678247996123123,3.8373523385675385,3.1254281530395422,3.4383138242166673,3.9469709074624517,3.045805262973597,2.9404090287820845,3.44644159926003,3.433547944428137,3.646898151401676
2.205291576876658,1.8340921666765104,2.118582850088445,1.928117212319979,3.224901211975007,2.9665977399130394,2.8066852664907507,2.158107943590766,2.5183615087865583,2.8010483107972246,2.590669162497538,3.397933243547348,3.398376248538731,2.209754675273992,3.3884139638416846,2.223566394484566,2.6505238346441007,2.9349154676095504,2.6185364739880748
3.47599984076554,1.6540990862774125,1.8420536034309356,2.692025905010046,3.703967396969485,3.4662926920436377,3.379873578916475,3.4720606591530254,3.504676333902355,3.8555109545852955,3.2675236067630937,3.4059247926368643,3.393862591028533,3.491968943302346,3.6768710534218663,3.439632131489926,3.602424070944377,3.186533623782699,3.5728710270962227
3.6012406224084392,3.514670066425193,2.0068407778795665,2.9142196216279292,2.4811892039522867,3.1483074428205255,3.396515355349857,3.549066563108346,2.680260448113256,3.6257678702555083,4.083869562180418,3.479680732091029,3.65684067284903,4.034509742028165,3.611028122491735,3.4826563184047976,3.4480992580321352,3.5347852054125806,3.732521900923115
3.4317452667195436,3.3084075269399453,3.0033207136213846,3.0571400857312723,3.1393840821919463,3.120974333079552,3.259612144533155,3.6330327106914506,3.366263803018189,3.579258952640673,3.7683868370365654,3.5968438054253147,3.448430432795579,3.7371493914357967,1.9799009941273091,3.74385653595674,3.7420870004443714,3.29484912737347,3.8012567722936894
2.9260846088588433,1.8373761729615283,2.8072429388179967,1.9030711422819866,2.6662761861652906,3.198214972920101,3.4312216728335043,2.793486478085796,3.219848411270199,3.7353802630189716,3.462451931422848,3.500274476897126,3.538963770234701,3.4909588968644885,3.628207093504412,3.4952070197377334,3.685314326268143,3.685552936830201,3.4667954755143704
3.6900895816563057,3.72414061977147,2.6123244326116004,3.4860629411696693,3.032792415602518,3.216901812046665,3.159730134455585,3.7310951948137436,3.0667310591446046,3.557437293776509,3.95609608670982,3.5458474592819904,3.585102053147328,3.6564934070566277,2.9900197194799496,3.7380931439078244,3.713345721326375,3.6381748795131674,3.50241146311807
3.162948869923482,3.447000536148763,3.2534460164413357,3.2551001488491824,3.3063257417048737,3.3951855375268396,3.4290477200714613,3.5338745350137803,3.5181433345439665,3.7249412224030665,3.724272731583352,3.5894280947923214,3.608588916299453,3.6408009264107783,3.564295296241538,3.8069997822130994,3.7245827356346237,3.3186171031860443,3.5389499244777842
3.6309126396549773,3.271602009205652,2.646656871540831,2.7310826013705625,3.644715532708895,3.464810685322328,3.4467146240947386,3.6146784395707687,3.7155306198301403,3.529662524702603,3.7268952721196693,3.2874853489615674,3.0570625059236027,3.901947127811209,3.213405626913021,3.731292016984629,3.851114637418516,3.1649124428065214,3.6031300039656164
3.515246783515616,3.030476891084084,3.1245392870735684,3.1225369221270354,3.1621473680194967,3.1449506058125283,3.3653533315206934,3.5708988901929626,3.2804555126881425,3.8341735555834333,3.9523259472507752,2.5416685905734515,3.6895059713894467,3.973150527567109,3.447464686110655,3.480642018309032,3.833106370713581,3.592625377433688,3.630336705468833
3.642700915696373,3.1885296154622207,2.1628390410362095,3.1786661709221655,3.454835602139843,3.289988950873539,3.252754755186477,3.614661851298279,3.4933686951594947,3.7335600629704264,4.107650402996076,3.4031397841450595,3.5911746750600475,3.843109681598042,2.8413046296655216,3.1428179709948725,3.858754469306369,3.4244232161167685,3.7375342319031337
2.7895670954498533,2.160178778929418,2.55254925878486,2.1137918997323433,2.9205888838502325,2.6867350297626804,2.925896779521892,2.858951233875527,2.941678864634583,3.7488055122288593,3.5470310625746824,3.6137907196172785,3.720908897116909,3.5525318464250937,3.1085970441552853,3.6688722225942856,3.6627570064751955,3.6502480979388654,3.4860474670594885
3.613672001211894,2.348529422458185,1.4331972990841408,2.3304814709991284,3.67555279845303,2.922608933969635,2.5639854308132413,3.5901092225613476,3.7643191811075423,3.9349917967619876,3.960254010471315,3.4018750656595214,3.5797910080480233,3.557392447160244,3.5713103582617927,3.5616519541748697,3.666257776003333,3.5462340240507526,3.2483432001812105
3.9027796169551037,3.4471199731256825,2.45367995607949,3.6264423440114104,2.9500795745190467,2.943700128189798,2.7447006348183836,3.9368046038726914,3.3690161118767805,3.6099321206975423,3.981371168283597,3.4281354437392864,3.8291445254477323,3.9343605105666497,3.589674269165001,3.810398426888351,3.732377859097668,3.6131362246441805,3.6300968841560706
3.5385478370574357,3.487550738245225,2.1880140382780127,3.5440164629957915,3.234675952662545,3.4965915615528362,3.4411196383670686,3.6517216966481647,3.0750009784534784,3.8944326469769477,3.887904507240324,3.116106797575458,3.5985551041217385,3.718951639398582,3.6010035013164057,3.5313470339721973,3.1081388624543758,3.5238253458151934,3.8653931476371137
4.025511587688983,3.7107579587457202,1.8553907994497045,3.5284768275385456,3.991107974163204,3.7099846111569406,3.449280335457165,3.8840553535794697,3.894462995515349,3.635512210128305,3.618628506833602,3.7067617766760477,3.336614991081897,3.5172445168152033,3.305746368055946,4.025209653404233,4.012830934444542,3.4567550358469274,3.795429904058133
3.004618869742597,3.148708494026092,2.24640571038464,2.125506645499115,3.3552330919372038,3.716811999415375,3.710891255744117,3.4042836215821137,3.5164061340442223,3.7453256336450096,3.983424842493154,3.461018667215009,3.831472154310786,3.997851564966938,3.5930885009799574,3.5904467920916954,3.685286874773211,3.8408853148203597,3.316209355191411
2.9516661147296843,2.784563930662025,2.0738653219960552,2.0153869872542076,3.3717350220913898,3.185287864073982,3.2421818057181935,2.7928387881245254,3.293200517314727,3.5374468541058786,3.445538718557384,2.5766532536473328,3.4175364166459654,3.711435675558963,3.2820669832269345,3.1636068488605464,3.2399274435111596,3.5373180540856177,3.665929068542535
3.5469105059890422,3.1049885617351207,2.1322452181551377,3.103540389613054,3.415484991896531,3.38505573752825,3.371933586262595,3.4901207251427415,3.4312984842144303,3.580030131422426,3.5421789259549454,3.4054176995447594,3.388342175054581,3.738782853612649,3.5132325485124265,3.5058220676076775,3.761921341976126,3.4792144771110416,3.5621763284954127
3.5654482361072546,3.0166947196054674,2.4550235985280233,3.1544129988902343,3.1844248046768233,3.331911551936027,3.305981356913016,3.747313258382065,3.3989534295193984,3.62431721872823,4.081985366345595,3.550780656250982,3.635992351133066,3.867371877983903,3.2328691020395763,3.5345705795817874,3.6576201666772628,3.477333158471725,3.562690026304649
4.0109238906926645,3.747013842641206,2.453632152285666,3.783949146537952,3.6339525162339172,3.8431971205772935,3.7473406771308535,3.859134972380228,3.197609692806248,4.024166842673395,3.9557953749916663,3.846558886378923,3.914061215445379,3.900925624570661,3.8472387859434463,3.422999959173837,3.908224466355457,3.8362004019396254,3.6942944962711595
3.4244066915831293,3.6698635565799567,2.4689283336373578,3.488019035056749,3.3006381148678137,3.5195883459064357,3.6132300335046312,3.729258291741408,3.183768698374104,3.7110014226366257,4.082524968688793,3.251891089266726,3.814195247910153,4.008264161909717,2.916872194802206,3.4462279955947137,3.668276985334913,3.4082651162322612,3.790418165326104
1.6638664617024823,3.05736566985256,2.5837821503394856,1.4185186109720263,3.857005847275399,3.490154409896276,3.5431472122938446,2.6049370583138787,3.62149580358987,3.7347794028565127,3.613556429793558,3.5107558377803203,3.7298511212828895,2.8064776946084233,3.7769886864421958,3.671358336819571,3.800454346948563,3.4298332332216073,3.74352153806014
3.6305331606890783,3.452611511570047,3.138829985242702,2.8988247194015773,3.028501574131139,3.312947895546076,3.5380817099181554,3.808211808876487,2.790588599346875,3.4919584475675367,3.769162339308218,3.5702151072162223,3.8340947872136746,3.7364513524232867,3.394286472345917,3.5139073505351286,3.2058024166595,3.6058380990894476,3.672831992377767
2.1587754342058436,1.8421522866059512,2.3059877712369037,1.8057869522085808,2.79798938042448,2.295677553081786,2.376577050274327,2.927622076069171,2.2179419993262854,2.6865487057202797,3.336678763622958,3.2218629756814936,3.267883378889342,2.21225323623518,3.41580064529003,2.236543240559627,3.151777602466245,2.934904339609606,2.5402195714764377
3.485997647279216,2.729872847880965,3.044088719652656,2.9533086167230294,3.1639297126170236,3.393878183537458,2.826877034566541,3.794510796215359,3.1411101446897205,3.6786827553007853,3.866172531852228,3.381377309550782,3.5182434539396423,3.581470499569279,3.6535023043722554,3.216397229061488,3.546937413858985,3.3515826822418573,3.7258422687474195
3.3729809915265707,2.73473050468562,3.202391191710201,3.0327160886194937,3.450656462709621,3.4350804851108463,2.946669752053227,3.4468541049777017,3.585309755691319,3.674511145669197,3.765166756402337,3.53221024715737,3.5144317990981397,3.6114554725846313,2.774743021190103,3.612499372699302,3.7463196853842144,3.2404902780446125,3.5415364296673624
2.6306944677400295,3.843642205138634,3.57667319710401,2.797759870298914,3.0424857303638078,3.687183328761917,3.8117597981779703,2.7023623640731422,2.647191217950992,3.6163230078655557,3.11958215433471,3.4663263309041046,3.6196838334336277,3.216864758316281,3.0263261433416315,3.5173906225880547,3.6059642234305342,3.869521206322853,3.1187271870793456
3.882390117473565,2.294783024021306,3.174909082593202,2.729835872747959,2.8616543013361913,2.6955632579882467,3.023099226654864,3.164324237118372,3.4046351054132464,3.723741918869215,3.970023401020548,3.388400089431948,3.6008603537588493,3.9740745339254966,3.2937011589160727,3.839945298678761,3.848473458263731,3.7412684035146273,3.787319366894637
3.7898221215522474,3.587916014802877,3.258779966331021,3.1589547116489696,3.7656048542749865,3.520839334078775,3.028880637400351,3.329349396574384,3.750008957551607,3.567895087898268,3.9711520764902892,3.628202213674526,3.468480239429871,3.272350280246512,3.6423414978390642,3.707977215732611,3.7463749459656364,3.60993084584562,3.5802877785962113
3.4432325406433546,3.346019359484688,2.917154206541376,3.301547314298658,3.451091241009613,3.373217145751376,3.374505414225125,3.6248319394645963,3.3046213755038294,3.7220214601011645,3.833464746106233,3.314921040071606,3.5863180324026174,3.835777416180365,3.21861325682474,2.635936880964633,3.6170206222760326,3.5151422937344092,3.5333741937011367
3.620581731479263,3.3537832530195906,3.006589620739004,3.453295093509933,3.4488721480832383,3.405817102580677,3.3629568095058118,3.6721934065102295,3.5946173708651314,3.7841288647838534,3.7625052846994738,2.792792307284469,3.790386076855109,3.8398727919801607,3.3085456973703504,3.6071817248134797,3.7534053456432046,3.5839596820162556,3.7603045273790094
3.841121461772674,3.4505313538851063,2.5508507529281608,3.0758200950340635,3.536042197553962,3.549922392513437,3.5450038703156665,3.9012454222305677,3.4816417449531536,3.984081840082754,3.958124431069063,2.7153029534065034,3.8252765447752686,3.91419078012089,1.4372421661533366,3.1942401572422052,3.6790913485585857,3.696381775101357,3.7552427945957056
3.5578934126186446,3.5508582106968825,3.0566136930424506,2.9721291332426905,3.504661117364807,3.499072343483394,3.443109195343302,3.3469259770737705,3.517639040206136,3.6632972161059105,3.5112888347880356,3.4074037594740623,3.3577541027211177,3.6133865144903914,1.8391106624062086,3.537051179233644,3.5825071081603217,3.383202324681985,3.63290599704439
3.5676963054866984,3.491303749036529,3.041555802092827,3.418220627395303,3.5788506009476024,3.5435096284010363,3.397589585190971,3.6311874974752705,3.3982592601748323,3.616234938231601,3.5833838240626803,2.7825085774468503,3.385407567987792,3.8180943864289674,2.315318112738946,3.3916579937630993,3.546674667245314,3.4280482323759545,3.6376348866523855
3.335920832691279,2.8583039581667853,2.389890645241786,2.9797145171903305,2.9988160793558816,3.221211430573569,2.9423614876801123,3.456857696003914,2.9615948989476104,3.547732045260237,3.630633851493965,2.912722779057821,3.5099086455808837,3.527593274013385,2.8153727038102083,3.3240734674461163,3.330312572848641,3.461291583889494,2.93330961732222
2.164791640981791,2.6530096713079083,2.9603732649193497,1.220158761689705,3.51289026674447,3.464769993472628,3.4872337713744965,2.2424924057794855,3.4621741897465426,3.6996609453324516,3.602237727871335,3.45638594985204,3.6733190270170835,3.6616826711835295,3.0637073807636646,3.4673920187468896,3.5597261616980975,3.7649714850681506,3.297496987467665
2.3031529138764713,2.1071051035487867,2.6378053863565576,2.042143518349961,3.195353287833916,3.146424719709873,2.661292383295288,2.526417203717286,3.4097702780592183,3.1405607957814485,2.915256554972508,3.495177045356196,2.9373004509513674,2.360601678657641,2.194315193187558,3.8162803367964635,3.7042179956929773,2.3352781042290816,3.205728375551224
3.7928317792395703,3.553452967367883,3.2764682577742574,3.1963270621479256,3.458504740855281,3.5247531021248824,3.536417924531603,3.7794884949103724,3.4198289917524414,3.7083660856608427,3.732882675525598,3.445536529011968,3.4792274682592645,3.8829761808557866,2.044997629876619,3.550405480055175,3.548848584276949,3.6718248469545394,3.577420935488215
3.676453271334966,3.238696402825299,3.0047100901614443,3.000310640153941,3.439681927601183,3.269698568976549,3.2339584890557616,3.5807031366606665,3.1553705054691377,3.485845335047277,3.866699571197644,3.2921518782452868,3.6088660962663615,3.636428992369887,2.6176239621474116,3.1483209631143514,3.623785676688216,3.370039137860462,3.362678550312096
3.4549642698269127,3.142773814980044,2.913230786866272,3.0076351594205404,3.3836587878084576,3.3808361772198614,3.2896767074760107,3.40262132809997,3.3451032694421796,3.579968486934059,3.8611220737960545,3.477915970891012,3.5734196591142338,3.9392060771259074,2.651534448080139,3.542917558626555,3.689456693452071,3.4531259088226878,3.388875753570068
3.508477761257559,3.29365971118247,3.0854660047298115,3.0820461645493444,3.4953564275565303,3.256727842683235,2.7302935582826726,3.375423554965907,3.5320091903186066,3.6685968344513378,3.618758982607678,3.4659093113546473,3.411796546522909,3.585891220457772,2.8269008344231406,3.736606926011323,3.5342609560032123,3.130336150599617,3.2939785694112804
2.80275353432956,3.345791949301325,2.742842766043229,3.4547985485300776,3.170087152533138,3.3545522876577176,3.662295628600154,3.401246464076637,3.397839485025372,3.8180641676308373,4.043017167670655,3.1103331321133316,3.6715181809521615,4.012280067576532,2.9042369016700547,3.5738972124088346,3.6600952871757455,3.7481887727941845,3.121258968757791
3.3733613411354866,2.989394949789659,3.136607090405294,3.3676586569951943,3.0063597089951704,3.1441827286313018,3.3533744287855423,3.097003296610692,3.236125137833558,3.681939571888949,3.719916054692505,3.334946066201226,3.589013798334866,3.71490244538983,2.842769355135004,3.463970620314277,3.4755414775610007,3.6161096803804407,3.346198760824237
3.556364553280334,3.3888533657140707,1.8829509152991724,3.4195181599848294,3.699193998205956,3.5283783894716643,3.441703406253876,3.6600814583764225,3.492228863765544,3.8889780065976955,3.979222076133417,3.5561755365874617,3.723273140186357,3.8591574805406013,3.3462543612590023,3.566818031716817,3.6632821007290315,3.6256958491584266,3.4674893661807134
3.6195903264296803,3.4638831641156558,1.544585689238605,3.327480493061957,3.602582393265466,3.366401760577451,3.1798440033795283,3.70447670200885,3.521294362816759,3.7465130117465284,3.768542579981993,3.49591286370013,3.5302230795203604,3.8956527466558577,2.6926470327209926,2.8835149222846956,3.5531529945389067,3.3414337628782245,3.406336607242081
3.313008278828245,3.231164772512084,2.7871890096828182,3.24974586646662,3.563838327716129,3.5646759540538797,3.5421127852770975,3.203229581258007,3.3481873075703907,3.768084928241912,3.9906669345623835,2.848021395818283,3.7720242510597677,4.0555451087461964,2.523073035244855,3.3719160825637613,3.6170436269233583,3.876782486463479,3.8488143986199055
3.704677983266874,3.1197019410607134,2.493304591159032,2.4783840939522186,3.2467098453703036,3.2982377739199964,3.1094838257664197,3.923758029024289,3.3204568415534332,3.772142531662514,4.106325262948182,3.31096898468654,3.8442979403561934,3.993161135978149,1.2442300010456548,3.446623562309375,3.7033878870536387,3.7457067191900935,3.9202823319002262
3.368032018766631,3.1581616303049898,3.3018513590922085,3.127874348683598,3.4420413886882737,3.3779867332598426,3.3262706730992773,3.5477051752125246,3.409946056335248,3.288877047244599,3.1540882755832076,3.301044114369921,3.2293727144035294,3.5702135571284384,1.975929847102015,3.5862196746423476,3.5883754634005354,3.0447571763168755,3.535323026485696
3.389780941495396,2.7531590994972097,1.8111668690719052,3.3963710563354,2.8327304503598443,2.7322901883695763,3.1472575683553026,3.503862261922115,2.622133410440255,3.343223671195448,3.724944082211967,3.509369830939975,3.41507849320283,3.9151190455026317,1.9654418457217049,2.8245202490259333,3.167781435855814,3.3190882091851748,3.473186490758618
1.6614764825705655,1.5358332243023671,1.8412689497721955,1.4736286553376894,2.6021974487954957,2.406386342977793,2.4338466111922,1.9035657924222815,2.430472711134475,2.7547591412286967,2.4046590070230214,3.0023612552020835,3.0409834201316324,1.7985894804044675,2.2650642140794215,2.372376724270428,2.6972994671831274,2.5699686746361663,2.247178015133433
2.6588792186620402,1.9723977457252986,3.317474695307434,2.1969021110415246,3.1663177739042045,3.49694400062936,3.457676094645806,3.637096611326812,3.199843798629583,3.7934033295704808,3.857360294755103,3.070377084738415,3.6353486492487113,3.6957010605694895,2.7853401681737124,2.6842090527829714,3.521935724580719,3.693688203791135,3.777752941768314
3.604756990618962,3.0255217224525377,2.8284204694835866,3.1195857194092893,3.5630353231593723,3.603924757726467,3.5211230489201815,3.6037656782562304,3.4056836961484347,3.8750631764512473,3.908169024296798,3.4164341427962897,3.6922902296700673,3.6991533501997713,3.3855556766604797,3.402989146828249,3.600905353930961,3.7932320598139517,3.8141774990778825
3.860456518933921,3.2342720802353115,3.332022141981998,3.214998031111072,3.3887148595195553,3.5832438779283433,3.7905538577929523,4.063832143516337,3.884911179664019,3.891560732419565,2.771208323480943,3.4473835635499257,3.2334582456444396,3.5520965505912088,3.470134545919598,3.5635698608485105,3.797520079124912,3.6885710265733627,3.421790982123955
4.0671576840953305,3.4410734005659087,2.0188379894042927,3.9747478227990705,3.477347010782411,2.487513979318628,3.234844625904192,4.2195404542268475,2.7567131778882614,3.699924231677483,3.9576802007601968,3.120690324335028,3.8817443089633437,4.058726047892778,3.472134163068575,3.750848196406057,3.76625674005593,4.0394514875651515,3.3721436809971626
3.1203018686977706,3.492462201894385,2.1328722484549685,3.452522020792382,3.4807040593814094,3.3759770973610084,3.6877346403384204,4.041981459488565,3.2060799532540445,3.8510019365116928,3.9025970827528846,3.372775228925652,3.7959337571247884,3.9604631172614266,3.4569994873994334,3.2999022240823566,3.6717499807221268,3.776341018613531,3.74701789183562
4.065116416056746,3.7916195249143647,2.496724250977516,4.011768301530591,3.9002873673647604,3.99874163412109,3.698613618468343,4.094581476363928,3.814362897703749,3.863971122934159,3.924095405354484,2.918381217731567,3.6426484177440113,4.007611472472272,2.885320703508529,3.8695322547988744,3.785140178571514,3.972250180014089,3.9029338190021985
2.953597172667441,3.7358224859266995,2.527311461094262,3.4710036261337294,3.408355678108583,3.50043780226062,3.785796987304347,3.921162145765673,3.0657869811535403,4.008634274000263,3.892659706403042,3.5146949013119655,3.7147081189121134,3.598768578426995,3.1249320808181955,2.9195391782119064,3.6713982623616577,3.4630191280093854,3.6319094499511024
1.3322120160541786,1.3539891567279836,2.9780545069444297,1.392756037984829,3.334484941043202,2.175355520373808,2.114351493951315,2.416291548389391,2.398783418395029,3.682862556981673,2.9074161440026596,3.297543131705366,3.5547775615907775,1.6414052788130216,3.3089017311078286,1.6657397298212702,2.6388505714787307,3.449192981597129,2.4139125684812437
3.1847916316769007,1.5463614951637286,1.9761102147759477,3.1027425812283806,3.3091726251082387,3.403264006063846,3.400243111046548,3.7315915409637075,3.4163350824860084,3.7361592470130245,4.0003714066897285,3.026424888881587,3.4524772502062904,2.9561808711552846,3.040403981288565,3.04607341599782,3.4755775146725973,3.6389924590034477,3.7375553844914684
2.6224921533980434,2.1460046181593544,2.608066939100659,2.6917938619756874,3.83152987836709,3.3025851228110423,3.274005128169148,3.559940784931934,3.826868611268872,3.6862417335137727,3.9450039765379477,3.3578757959967307,3.5005696522869654,3.621415400176459,3.411580010290634,3.705238448349312,3.62458638097399,3.555903691836155,3.476965669400131
3.777789237537613,3.5727240720620785,2.404352422933908,3.5276005603610776,2.806232368992942,3.085176240936574,3.004718011272245,3.5333030168405277,2.844283150572571,3.8938357129191106,3.7698586099403557,3.093778629757282,3.699147532916114,3.8362178980364594,3.564082471731097,3.6940602466570507,3.532925617652177,3.684709206772759,3.3860550191559615
3.776510225864828,3.3624137638775022,2.4529352454083186,3.4154125284554624,3.672172684509455,3.368482923811709,3.3292287469037225,3.7871019432855166,3.4585388510324035,3.4077910153182556,3.85219420876911,3.463577051494859,3.3859296124929568,3.888543843062815,3.330909284797786,3.577190652088283,3.4412844236754285,3.5611349731992386,3.529314472779586
1.7160761634507278,2.6757661592351445,2.7531088222921256,2.7641914253076254,2.5673113776243865,2.9546437746300054,3.069792551072606,2.1808388386934583,2.5533252800158652,3.6362285051236922,3.0341521120511565,3.155191119980302,3.698341273666101,3.6175032584055358,3.364369147302637,2.8610417570811015,3.6973076992465734,3.7375738493396873,3.612250732699794
3.1211496582907894,3.4001028227163776,1.6628904289841433,2.7757193961197855,3.753034704934161,3.5159341370761834,3.517818811201884,2.933068110204169,3.1760267988516655,3.987454510521064,3.685261250578896,3.4964849022688407,3.403856412930584,3.488383735855925,3.44445911475883,3.860100250175583,3.5772812197062867,3.5423933492068045,3.6493666949850385
3.7703219503004632,3.5367344424510945,2.220491653744619,3.5449766064293495,3.7995024732393383,3.486935113938695,3.200425782160809,3.7829890172599887,3.6167447299370266,2.9530197522251567,3.951739297081146,2.788789601277775,3.498439206855087,4.009746831817951,3.7446214796003536,3.8936940294265705,3.9386853755746603,3.715679586451744,3.63836352795832
3.724655161375641,3.544142066068974,1.9280034904941397,3.5777641053552225,3.5833337169035215,3.5769112121717903,3.4132662734019137,3.6237018411350252,3.79239143973721,3.670074972021642,3.9179091755147106,3.3102514674760997,3.720270669712151,3.7805691369114136,3.226841709983618,3.252729679997177,3.6664859294465137,3.594576345539431,3.5482690294075394
3.6831823444798926,2.822602234513526,2.042520025791236,3.447441468670153,2.987613266690504,3.0757107166347057,2.571458084246178,3.7412462109627747,3.621431880667526,3.9563003585328826,3.7486418228423646,2.3134268495105688,3.7567899577775803,3.910585648921476,3.5393154909382214,3.925475390113006,3.8591529996125056,3.714975103021397,2.985482586483235
3.534793845086293,3.6045688924574333,2.229427918690814,3.5759171130628262,3.8948928916113843,3.7203266303896134,3.2788623334091924,3.8745716501746856,3.719150906984805,3.753635456997619,3.922220914787489,3.481631171397203,3.6532328098719713,4.045770091002473,3.6975333713159024,3.398453088151556,3.716624007010085,3.7443525726129883,3.7811007008585658
3.23386571861102,3.1690977472487134,2.6496941102186655,3.323422847388175,3.387678454432107,3.4014519095495115,3.3162559120444133,3.4173016519675112,3.2687447289601375,3.0547120594045,3.4137389332208428,3.494666797162563,3.4756355037864783,3.6608873602066367,3.123893640919049,2.5142607042605025,2.8723030696295746,3.32670561605824,3.513060782659075
